X	Y	C	Z	T	Intensity	BG	MX
113.833	118.167	1	1	1	421.796	140.724	218.423
113.141	118.888	1	1	1	450.789	140.724	218.423
112.448	119.609	1	1	1	450.594	140.724	218.423
111.755	120.330	1	1	1	433.208	140.724	218.423
111.062	121.051	1	1	1	405.821	140.724	218.423
110.370	121.773	1	1	1	420.250	140.724	218.423
109.677	122.494	1	1	1	448.328	140.724	218.423
108.984	123.215	1	1	1	446.346	140.724	218.423
108.292	123.936	1	1	1	436.054	140.724	218.423
107.629	124.685	1	1	1	435.953	140.724	218.423
107.081	125.522	1	1	1	430.846	140.724	218.423
106.533	126.358	1	1	1	447.232	140.724	218.423
105.985	127.194	1	1	1	427.311	140.724	218.423
105.437	128.031	1	1	1	437.205	140.724	218.423
104.889	128.867	1	1	1	448.091	140.724	218.423
104.341	129.704	1	1	1	435.935	140.724	218.423
103.793	130.540	1	1	1	442.601	140.724	218.423
103.245	131.377	1	1	1	447.949	140.724	218.423
102.745	132.243	1	1	1	415.199	140.724	218.423
102.285	133.131	1	1	1	432.562	140.724	218.423
101.825	134.019	1	1	1	416.615	140.724	218.423
101.365	134.907	1	1	1	436.931	140.724	218.423
100.905	135.795	1	1	1	427.373	140.724	218.423
100.445	136.683	1	1	1	445.151	140.724	218.423
99.986	137.571	1	1	1	427.700	140.724	218.423
99.526	138.459	1	1	1	426.558	140.724	218.423
99.097	139.362	1	1	1	445.509	140.724	218.423
98.683	140.273	1	1	1	447.977	140.724	218.423
98.269	141.183	1	1	1	419.771	140.724	218.423
97.855	142.093	1	1	1	446.993	140.724	218.423
97.442	143.004	1	1	1	435.937	140.724	218.423
97.028	143.914	1	1	1	440.802	140.724	218.423
96.614	144.824	1	1	1	422.270	140.724	218.423
96.200	145.735	1	1	1	427.606	140.724	218.423
95.786	146.645	1	1	1	409.968	140.724	218.423
95.373	147.555	1	1	1	407.259	140.724	218.423
94.988	148.479	1	1	1	402.191	140.724	218.423
94.878	149.473	1	1	1	409.378	140.724	218.423
94.767	150.466	1	1	1	425.960	140.724	218.423
94.656	151.460	1	1	1	425.007	140.724	218.423
94.545	152.454	1	1	1	421.207	140.724	218.423
94.435	153.448	1	1	1	423.308	140.724	218.423
94.324	154.442	1	1	1	433.688	140.724	218.423
94.213	155.436	1	1	1	436.123	140.724	218.423
94.102	156.430	1	1	1	459.300	140.724	218.423
93.992	157.423	1	1	1	478.529	140.724	218.423
93.881	158.417	1	1	1	472.653	140.724	218.423
93.770	159.411	1	1	1	441.960	140.724	218.423
93.659	160.405	1	1	1	441.220	140.724	218.423
93.548	161.399	1	1	1	439.594	140.724	218.423
93.344	162.378	1	1	1	433.831	140.724	218.423
93.070	163.339	1	1	1	436.290	140.724	218.423
92.795	164.301	1	1	1	434.836	140.724	218.423
92.520	165.262	1	1	1	445.604	140.724	218.423
92.246	166.224	1	1	1	426.728	140.724	218.423
91.971	167.185	1	1	1	410.378	140.724	218.423
91.696	168.147	1	1	1	396.281	140.724	218.423
91.421	169.108	1	1	1	388.790	140.724	218.423
91.147	170.070	1	1	1	400.218	140.724	218.423
90.872	171.031	1	1	1	363.077	140.724	218.423
90.597	171.993	1	1	1	377.082	140.724	218.423
90.323	172.955	1	1	1	376.138	140.724	218.423
90.102	173.930	1	1	1	392.071	140.724	218.423
89.954	174.919	1	1	1	400.233	140.724	218.423
89.806	175.908	1	1	1	414.264	140.724	218.423
89.657	176.897	1	1	1	410.372	140.724	218.423
89.509	177.886	1	1	1	393.651	140.724	218.423
89.360	178.875	1	1	1	415.576	140.724	218.423
89.212	179.864	1	1	1	374.072	140.724	218.423
89.064	180.852	1	1	1	385.820	140.724	218.423
88.915	181.841	1	1	1	415.143	140.724	218.423
88.767	182.830	1	1	1	409.895	140.724	218.423
88.619	183.819	1	1	1	403.448	140.724	218.423
88.470	184.808	1	1	1	430.045	140.724	218.423
88.322	185.797	1	1	1	447.596	140.724	218.423
88.174	186.786	1	1	1	454.210	140.724	218.423
88.167	187.786	1	1	1	484.027	140.724	218.423
88.167	188.786	1	1	1	489.077	140.724	218.423
88.167	189.786	1	1	1	503.773	140.724	218.423
88.167	190.786	1	1	1	508.251	140.724	218.423
88.167	191.786	1	1	1	502.384	140.724	218.423
88.167	192.786	1	1	1	490.235	140.724	218.423
88.167	193.786	1	1	1	499.376	140.724	218.423
88.167	194.786	1	1	1	456.887	140.724	218.423
88.167	195.786	1	1	1	428.409	140.724	218.423
88.167	196.786	1	1	1	411.846	140.724	218.423
88.167	197.786	1	1	1	398.139	140.724	218.423
88.167	198.786	1	1	1	384.872	140.724	218.423
88.167	199.786	1	1	1	368.267	140.724	218.423
88.167	200.786	1	1	1	386.620	140.724	218.423
88.167	201.786	1	1	1	378.414	140.724	218.423
88.167	202.786	1	1	1	384.025	140.724	218.423
88.167	203.786	1	1	1	377.053	140.724	218.423
88.167	204.786	1	1	1	382.251	140.724	218.423
88.167	205.786	1	1	1	395.939	140.724	218.423
88.177	206.786	1	1	1	426.365	140.724	218.423
88.213	207.785	1	1	1	423.167	140.724	218.423
88.248	208.785	1	1	1	422.404	140.724	218.423
88.284	209.784	1	1	1	432.361	140.724	218.423
88.320	210.783	1	1	1	421.583	140.724	218.423
88.355	211.783	1	1	1	419.291	140.724	218.423
88.391	212.782	1	1	1	421.360	140.724	218.423
88.427	213.782	1	1	1	394.141	140.724	218.423
88.462	214.781	1	1	1	388.503	140.724	218.423
88.498	215.780	1	1	1	387.450	140.724	218.423
88.534	216.780	1	1	1	406.949	140.724	218.423
88.569	217.779	1	1	1	391.299	140.724	218.423
88.605	218.778	1	1	1	387.351	140.724	218.423
88.641	219.778	1	1	1	401.453	140.724	218.423
88.677	220.777	1	1	1	381.814	140.724	218.423
88.712	221.776	1	1	1	389.998	140.724	218.423
88.748	222.776	1	1	1	407.552	140.724	218.423
88.784	223.775	1	1	1	437.403	140.724	218.423
88.819	224.775	1	1	1	434.934	140.724	218.423
88.892	225.772	1	1	1	421.319	140.724	218.423
88.987	226.767	1	1	1	449.686	140.724	218.423
89.083	227.763	1	1	1	450.605	140.724	218.423
89.179	228.758	1	1	1	458.218	140.724	218.423
89.274	229.754	1	1	1	460.782	140.724	218.423
89.370	230.749	1	1	1	478.884	140.724	218.423
89.466	231.744	1	1	1	460.712	140.724	218.423
89.562	232.740	1	1	1	441.036	140.724	218.423
89.657	233.735	1	1	1	429.526	140.724	218.423
89.753	234.731	1	1	1	425.234	140.724	218.423
89.849	235.726	1	1	1	431.263	140.724	218.423
89.944	236.721	1	1	1	421.880	140.724	218.423
90.040	237.717	1	1	1	410.449	140.724	218.423
90.136	238.712	1	1	1	407.001	140.724	218.423
90.232	239.708	1	1	1	404.885	140.724	218.423
90.327	240.703	1	1	1	411.136	140.724	218.423
90.423	241.698	1	1	1	431.100	140.724	218.423
90.583	242.686	1	1	1	419.987	140.724	218.423
90.989	243.599	1	1	1	405.092	140.724	218.423
91.395	244.513	1	1	1	423.096	140.724	218.423
91.801	245.427	1	1	1	435.239	140.724	218.423
92.207	246.341	1	1	1	430.679	140.724	218.423
92.613	247.255	1	1	1	437.758	140.724	218.423
93.019	248.169	1	1	1	430.450	140.724	218.423
93.425	249.082	1	1	1	409.017	140.724	218.423
93.832	249.996	1	1	1	424.876	140.724	218.423
94.238	250.910	1	1	1	450.890	140.724	218.423
94.644	251.824	1	1	1	459.447	140.724	218.423
95.050	252.738	1	1	1	458.254	140.724	218.423
95.456	253.651	1	1	1	479.225	140.724	218.423
95.853	254.569	1	1	1	497.638	140.724	218.423
96.128	255.531	1	1	1	490.258	140.724	218.423
96.403	256.492	1	1	1	463.051	140.724	218.423
96.677	257.454	1	1	1	470.064	140.724	218.423
96.952	258.415	1	1	1	471.226	140.724	218.423
97.227	259.377	1	1	1	468.977	140.724	218.423
97.501	260.338	1	1	1	482.166	140.724	218.423
97.776	261.300	1	1	1	487.636	140.724	218.423
98.051	262.261	1	1	1	518.300	140.724	218.423
98.326	263.223	1	1	1	517.290	140.724	218.423
98.600	264.185	1	1	1	502.212	140.724	218.423
98.875	265.146	1	1	1	525.014	140.724	218.423
99.150	266.108	1	1	1	547.434	140.724	218.423
99.424	267.069	1	1	1	551.332	140.724	218.423
99.699	268.031	1	1	1	559.479	140.724	218.423
100.052	268.966	1	1	1	601.704	140.724	218.423
100.476	269.872	1	1	1	620.195	140.724	218.423
100.900	270.778	1	1	1	598.572	140.724	218.423
101.323	271.684	1	1	1	617.862	140.724	218.423
101.747	272.589	1	1	1	639.360	140.724	218.423
102.171	273.495	1	1	1	654.939	140.724	218.423
102.595	274.401	1	1	1	672.320	140.724	218.423
103.019	275.306	1	1	1	654.090	140.724	218.423
103.443	276.212	1	1	1	635.556	140.724	218.423
103.867	277.118	1	1	1	649.557	140.724	218.423
104.291	278.023	1	1	1	656.085	140.724	218.423
104.715	278.929	1	1	1	682.335	140.724	218.423
105.139	279.835	1	1	1	674.756	140.724	218.423
105.563	280.740	1	1	1	679.086	140.724	218.423
105.987	281.646	1	1	1	709.044	140.724	218.423
106.411	282.552	1	1	1	704.056	140.724	218.423
106.835	283.457	1	1	1	748.207	140.724	218.423
107.333	284.325	1	1	1	814.236	140.724	218.423
108.058	285.013	1	1	1	794.750	140.724	218.423
108.783	285.702	1	1	1	783.168	140.724	218.423
109.508	286.391	1	1	1	770.209	140.724	218.423
110.233	287.080	1	1	1	762.969	140.724	218.423
110.958	287.768	1	1	1	707.616	140.724	218.423
111.683	288.457	1	1	1	672.831	140.724	218.423
112.408	289.146	1	1	1	661.999	140.724	218.423
113.133	289.835	1	1	1	606.306	140.724	218.423
113.852	290.529	1	1	1	598.183	140.724	218.423
114.394	291.370	1	1	1	580.934	140.724	218.423
114.936	292.210	1	1	1	567.472	140.724	218.423
115.479	293.050	1	1	1	578.727	140.724	218.423
116.021	293.890	1	1	1	564.065	140.724	218.423
116.563	294.731	1	1	1	564.833	140.724	218.423
117.105	295.571	1	1	1	571.336	140.724	218.423
117.647	296.411	1	1	1	588.747	140.724	218.423
118.189	297.252	1	1	1	614.926	140.724	218.423
118.731	298.092	1	1	1	620.729	140.724	218.423
119.273	298.932	1	1	1	651.360	140.724	218.423
119.816	299.772	1	1	1	680.051	140.724	218.423
120.358	300.613	1	1	1	679.698	140.724	218.423
121.124	301.255	1	1	1	682.781	140.724	218.423
121.953	301.814	1	1	1	646.014	140.724	218.423
122.782	302.374	1	1	1	611.579	140.724	218.423
123.611	302.933	1	1	1	581.767	140.724	218.423
124.440	303.493	1	1	1	570.999	140.724	218.423
125.269	304.052	1	1	1	557.198	140.724	218.423
126.098	304.612	1	1	1	547.688	140.724	218.423
126.926	305.171	1	1	1	546.133	140.724	218.423
127.755	305.731	1	1	1	526.588	140.724	218.423
128.584	306.290	1	1	1	547.920	140.724	218.423
129.413	306.850	1	1	1	568.430	140.724	218.423
130.242	307.409	1	1	1	568.406	140.724	218.423
131.071	307.968	1	1	1	640.669	140.724	218.423
131.899	308.528	1	1	1	654.988	140.724	218.423
132.728	309.087	1	1	1	677.882	140.724	218.423
133.557	309.647	1	1	1	665.002	140.724	218.423
134.438	310.120	1	1	1	657.541	140.724	218.423
135.342	310.548	1	1	1	621.683	140.724	218.423
136.246	310.976	1	1	1	636.032	140.724	218.423
137.149	311.404	1	1	1	605.965	140.724	218.423
138.053	311.832	1	1	1	594.468	140.724	218.423
138.957	312.260	1	1	1	585.353	140.724	218.423
139.861	312.688	1	1	1	570.238	140.724	218.423
140.764	313.116	1	1	1	544.301	140.724	218.423
141.668	313.545	1	1	1	546.019	140.724	218.423
142.572	313.973	1	1	1	547.831	140.724	218.423
143.476	314.401	1	1	1	528.589	140.724	218.423
144.379	314.829	1	1	1	540.884	140.724	218.423
145.283	315.257	1	1	1	533.147	140.724	218.423
146.187	315.685	1	1	1	561.936	140.724	218.423
147.091	316.113	1	1	1	549.712	140.724	218.423
147.994	316.541	1	1	1	564.373	140.724	218.423
148.898	316.969	1	1	1	554.933	140.724	218.423
149.809	317.382	1	1	1	576.001	140.724	218.423
150.755	317.705	1	1	1	589.656	140.724	218.423
151.701	318.029	1	1	1	576.764	140.724	218.423
152.648	318.352	1	1	1	570.736	140.724	218.423
153.594	318.676	1	1	1	585.481	140.724	218.423
154.540	318.999	1	1	1	584.159	140.724	218.423
155.486	319.322	1	1	1	573.832	140.724	218.423
156.433	319.646	1	1	1	572.940	140.724	218.423
157.379	319.969	1	1	1	576.680	140.724	218.423
158.325	320.293	1	1	1	563.097	140.724	218.423
159.271	320.616	1	1	1	535.943	140.724	218.423
160.218	320.939	1	1	1	529.853	140.724	218.423
161.164	321.263	1	1	1	563.253	140.724	218.423
162.110	321.586	1	1	1	562.405	140.724	218.423
163.057	321.907	1	1	1	568.311	140.724	218.423
164.007	322.220	1	1	1	539.289	140.724	218.423
164.957	322.533	1	1	1	560.614	140.724	218.423
165.907	322.846	1	1	1	555.859	140.724	218.423
166.856	323.160	1	1	1	586.418	140.724	218.423
167.806	323.473	1	1	1	589.244	140.724	218.423
168.756	323.786	1	1	1	565.023	140.724	218.423
169.705	324.099	1	1	1	619.587	140.724	218.423
170.655	324.412	1	1	1	632.529	140.724	218.423
171.605	324.725	1	1	1	647.716	140.724	218.423
172.555	325.038	1	1	1	649.013	140.724	218.423
173.504	325.351	1	1	1	650.510	140.724	218.423
174.454	325.664	1	1	1	639.859	140.724	218.423
175.404	325.977	1	1	1	663.224	140.724	218.423
176.353	326.290	1	1	1	629.136	140.724	218.423
177.303	326.604	1	1	1	613.867	140.724	218.423
178.272	326.850	1	1	1	616.808	140.724	218.423
179.270	326.913	1	1	1	634.814	140.724	218.423
180.268	326.975	1	1	1	618.434	140.724	218.423
181.266	327.037	1	1	1	638.930	140.724	218.423
182.264	327.100	1	1	1	609.427	140.724	218.423
183.263	327.162	1	1	1	592.544	140.724	218.423
184.261	327.225	1	1	1	546.462	140.724	218.423
185.259	327.287	1	1	1	521.091	140.724	218.423
186.257	327.349	1	1	1	517.428	140.724	218.423
187.255	327.412	1	1	1	507.299	140.724	218.423
188.253	327.474	1	1	1	495.139	140.724	218.423
189.251	327.536	1	1	1	499.759	140.724	218.423
190.249	327.599	1	1	1	470.719	140.724	218.423
191.247	327.661	1	1	1	452.029	140.724	218.423
192.245	327.724	1	1	1	460.192	140.724	218.423
193.243	327.786	1	1	1	456.902	140.724	218.423
194.241	327.848	1	1	1	462.085	140.724	218.423
195.239	327.911	1	1	1	464.300	140.724	218.423
196.237	327.973	1	1	1	476.742	140.724	218.423
197.235	328.036	1	1	1	495.711	140.724	218.423
198.233	328.098	1	1	1	523.900	140.724	218.423
199.231	328.160	1	1	1	520.541	140.724	218.423
200.231	328.135	1	1	1	526.156	140.724	218.423
201.230	328.100	1	1	1	520.720	140.724	218.423
202.230	328.066	1	1	1	518.127	140.724	218.423
203.229	328.031	1	1	1	499.693	140.724	218.423
204.229	327.996	1	1	1	482.907	140.724	218.423
205.228	327.961	1	1	1	493.336	140.724	218.423
206.227	327.926	1	1	1	503.128	140.724	218.423
207.227	327.891	1	1	1	506.110	140.724	218.423
208.226	327.856	1	1	1	483.512	140.724	218.423
209.226	327.822	1	1	1	470.538	140.724	218.423
210.225	327.787	1	1	1	469.735	140.724	218.423
211.224	327.752	1	1	1	472.677	140.724	218.423
212.224	327.717	1	1	1	436.304	140.724	218.423
213.223	327.682	1	1	1	434.902	140.724	218.423
214.216	327.562	1	1	1	421.352	140.724	218.423
215.198	327.375	1	1	1	394.994	140.724	218.423
216.181	327.188	1	1	1	402.532	140.724	218.423
217.163	327.001	1	1	1	390.750	140.724	218.423
218.145	326.814	1	1	1	371.368	140.724	218.423
219.128	326.626	1	1	1	396.212	140.724	218.423
220.110	326.439	1	1	1	400.177	140.724	218.423
221.092	326.252	1	1	1	402.415	140.724	218.423
222.075	326.065	1	1	1	380.092	140.724	218.423
223.057	325.878	1	1	1	403.296	140.724	218.423
224.039	325.691	1	1	1	393.811	140.724	218.423
225.022	325.504	1	1	1	390.084	140.724	218.423
226.004	325.317	1	1	1	371.183	140.724	218.423
226.986	325.130	1	1	1	378.412	140.724	218.423
227.957	324.888	1	1	1	393.540	140.724	218.423
228.890	324.529	1	1	1	426.059	140.724	218.423
229.823	324.169	1	1	1	468.635	140.724	218.423
230.756	323.810	1	1	1	445.671	140.724	218.423
231.690	323.451	1	1	1	435.789	140.724	218.423
232.623	323.091	1	1	1	426.184	140.724	218.423
233.556	322.732	1	1	1	399.296	140.724	218.423
234.489	322.372	1	1	1	377.354	140.724	218.423
235.422	322.013	1	1	1	367.814	140.724	218.423
236.355	321.654	1	1	1	366.037	140.724	218.423
237.289	321.294	1	1	1	351.761	140.724	218.423
238.222	320.935	1	1	1	339.577	140.724	218.423
239.155	320.575	1	1	1	333.813	140.724	218.423
240.092	320.227	1	1	1	343.455	140.724	218.423
241.062	319.984	1	1	1	359.216	140.724	218.423
242.033	319.742	1	1	1	352.346	140.724	218.423
243.003	319.499	1	1	1	378.267	140.724	218.423
243.973	319.257	1	1	1	396.421	140.724	218.423
244.943	319.014	1	1	1	401.609	140.724	218.423
245.913	318.772	1	1	1	392.686	140.724	218.423
246.883	318.529	1	1	1	389.268	140.724	218.423
247.853	318.287	1	1	1	415.857	140.724	218.423
248.824	318.044	1	1	1	426.998	140.724	218.423
249.794	317.802	1	1	1	449.478	140.724	218.423
250.764	317.559	1	1	1	437.456	140.724	218.423
251.734	317.316	1	1	1	457.660	140.724	218.423
252.665	316.951	1	1	1	437.704	140.724	218.423
253.577	316.542	1	1	1	436.549	140.724	218.423
254.490	316.132	1	1	1	418.199	140.724	218.423
255.402	315.723	1	1	1	403.820	140.724	218.423
256.314	315.313	1	1	1	398.247	140.724	218.423
257.226	314.904	1	1	1	396.587	140.724	218.423
258.139	314.494	1	1	1	389.367	140.724	218.423
259.051	314.084	1	1	1	390.324	140.724	218.423
259.963	313.675	1	1	1	413.953	140.724	218.423
260.875	313.265	1	1	1	378.478	140.724	218.423
261.788	312.856	1	1	1	391.923	140.724	218.423
262.700	312.446	1	1	1	372.758	140.724	218.423
263.612	312.036	1	1	1	372.207	140.724	218.423
264.514	311.604	1	1	1	359.432	140.724	218.423
265.389	311.121	1	1	1	367.208	140.724	218.423
266.265	310.638	1	1	1	376.695	140.724	218.423
267.140	310.154	1	1	1	379.164	140.724	218.423
268.016	309.671	1	1	1	387.794	140.724	218.423
268.891	309.188	1	1	1	388.605	140.724	218.423
269.767	308.705	1	1	1	388.381	140.724	218.423
270.642	308.221	1	1	1	398.959	140.724	218.423
271.518	307.738	1	1	1	405.119	140.724	218.423
272.393	307.255	1	1	1	391.775	140.724	218.423
273.269	306.772	1	1	1	364.635	140.724	218.423
274.144	306.288	1	1	1	373.388	140.724	218.423
275.047	305.858	1	1	1	372.185	140.724	218.423
275.984	305.508	1	1	1	362.640	140.724	218.423
276.920	305.158	1	1	1	352.911	140.724	218.423
277.857	304.808	1	1	1	343.706	140.724	218.423
278.794	304.458	1	1	1	357.838	140.724	218.423
279.731	304.108	1	1	1	338.699	140.724	218.423
280.668	303.758	1	1	1	351.165	140.724	218.423
281.604	303.409	1	1	1	355.459	140.724	218.423
282.541	303.059	1	1	1	363.486	140.724	218.423
283.478	302.709	1	1	1	363.812	140.724	218.423
284.415	302.359	1	1	1	389.956	140.724	218.423
285.351	302.009	1	1	1	420.554	140.724	218.423
286.050	301.293	1	1	1	414.477	140.724	218.423
286.740	300.570	1	1	1	398.894	140.724	218.423
287.431	299.846	1	1	1	408.458	140.724	218.423
288.121	299.123	1	1	1	406.245	140.724	218.423
288.812	298.400	1	1	1	401.263	140.724	218.423
289.502	297.676	1	1	1	434.585	140.724	218.423
290.193	296.953	1	1	1	435.597	140.724	218.423
290.883	296.230	1	1	1	393.803	140.724	218.423
291.574	295.506	1	1	1	378.300	140.724	218.423
292.264	294.783	1	1	1	396.613	140.724	218.423
292.955	294.060	1	1	1	384.301	140.724	218.423
293.374	293.152	1	1	1	370.491	140.724	218.423
293.576	292.172	1	1	1	379.953	140.724	218.423
293.778	291.193	1	1	1	383.689	140.724	218.423
293.981	290.214	1	1	1	374.371	140.724	218.423
294.183	289.234	1	1	1	396.142	140.724	218.423
294.385	288.255	1	1	1	394.579	140.724	218.423
294.588	287.276	1	1	1	412.421	140.724	218.423
294.790	286.296	1	1	1	403.435	140.724	218.423
294.992	285.317	1	1	1	430.076	140.724	218.423
295.195	284.338	1	1	1	410.493	140.724	218.423
295.392	283.357	1	1	1	383.966	140.724	218.423
295.577	282.375	1	1	1	370.071	140.724	218.423
295.763	281.392	1	1	1	373.311	140.724	218.423
295.948	280.409	1	1	1	349.661	140.724	218.423
296.133	279.427	1	1	1	352.547	140.724	218.423
296.319	278.444	1	1	1	372.184	140.724	218.423
296.504	277.461	1	1	1	361.937	140.724	218.423
296.690	276.479	1	1	1	335.387	140.724	218.423
296.875	275.496	1	1	1	324.676	140.724	218.423
297.235	274.563	1	1	1	326.230	140.724	218.423
297.891	273.808	1	1	1	326.153	140.724	218.423
298.547	273.054	1	1	1	309.570	140.724	218.423
299.203	272.299	1	1	1	304.913	140.724	218.423
299.859	271.544	1	1	1	304.976	140.724	218.423
300.515	270.790	1	1	1	309.726	140.724	218.423
301.172	270.035	1	1	1	309.215	140.724	218.423
301.828	269.280	1	1	1	300.904	140.724	218.423
302.484	268.526	1	1	1	298.129	140.724	218.423
303.140	267.771	1	1	1	319.307	140.724	218.423
303.796	267.016	1	1	1	317.830	140.724	218.423
304.452	266.262	1	1	1	323.277	140.724	218.423
305.108	265.507	1	1	1	338.533	140.724	218.423
305.764	264.752	1	1	1	323.561	140.724	218.423
306.406	263.985	1	1	1	333.682	140.724	218.423
307.044	263.215	1	1	1	332.626	140.724	218.423
307.682	262.445	1	1	1	335.187	140.724	218.423
308.320	261.675	1	1	1	355.096	140.724	218.423
308.958	260.905	1	1	1	338.478	140.724	218.423
309.596	260.136	1	1	1	369.147	140.724	218.423
310.235	259.366	1	1	1	369.937	140.724	218.423
310.873	258.596	1	1	1	374.370	140.724	218.423
311.511	257.826	1	1	1	386.727	140.724	218.423
312.149	257.056	1	1	1	367.440	140.724	218.423
312.787	256.286	1	1	1	384.408	140.724	218.423
313.426	255.516	1	1	1	355.151	140.724	218.423
314.030	254.720	1	1	1	352.479	140.724	218.423
314.599	253.897	1	1	1	356.970	140.724	218.423
315.168	253.075	1	1	1	370.116	140.724	218.423
315.737	252.253	1	1	1	422.418	140.724	218.423
316.306	251.430	1	1	1	447.305	140.724	218.423
316.875	250.608	1	1	1	461.062	140.724	218.423
317.444	249.786	1	1	1	485.872	140.724	218.423
318.013	248.963	1	1	1	482.942	140.724	218.423
318.543	248.115	1	1	1	466.123	140.724	218.423
319.022	247.237	1	1	1	432.706	140.724	218.423
319.501	246.360	1	1	1	413.227	140.724	218.423
319.980	245.482	1	1	1	374.923	140.724	218.423
320.459	244.604	1	1	1	370.766	140.724	218.423
320.937	243.726	1	1	1	369.166	140.724	218.423
321.416	242.848	1	1	1	386.805	140.724	218.423
321.895	241.970	1	1	1	381.658	140.724	218.423
322.374	241.092	1	1	1	378.718	140.724	218.423
322.853	240.214	1	1	1	398.092	140.724	218.423
323.332	239.336	1	1	1	444.900	140.724	218.423
323.648	238.388	1	1	1	466.223	140.724	218.423
323.965	237.439	1	1	1	454.020	140.724	218.423
324.281	236.491	1	1	1	432.899	140.724	218.423
324.597	235.542	1	1	1	423.173	140.724	218.423
324.913	234.593	1	1	1	413.811	140.724	218.423
325.230	233.645	1	1	1	392.203	140.724	218.423
325.546	232.696	1	1	1	411.789	140.724	218.423
325.862	231.747	1	1	1	407.050	140.724	218.423
326.163	230.793	1	1	1	406.824	140.724	218.423
326.062	229.798	1	1	1	414.793	140.724	218.423
325.962	228.803	1	1	1	445.839	140.724	218.423
325.861	227.809	1	1	1	439.864	140.724	218.423
325.761	226.814	1	1	1	442.716	140.724	218.423
325.661	225.819	1	1	1	474.923	140.724	218.423
325.560	224.824	1	1	1	456.099	140.724	218.423
325.460	223.829	1	1	1	442.308	140.724	218.423
325.359	222.834	1	1	1	437.764	140.724	218.423
325.259	221.839	1	1	1	456.962	140.724	218.423
325.143	220.846	1	1	1	445.567	140.724	218.423
325.025	219.853	1	1	1	423.090	140.724	218.423
324.907	218.860	1	1	1	418.525	140.724	218.423
324.789	217.867	1	1	1	433.048	140.724	218.423
324.671	216.873	1	1	1	413.091	140.724	218.423
324.554	215.880	1	1	1	398.189	140.724	218.423
324.436	214.887	1	1	1	382.223	140.724	218.423
324.318	213.894	1	1	1	396.692	140.724	218.423
324.200	212.901	1	1	1	364.418	140.724	218.423
324.082	211.908	1	1	1	352.742	140.724	218.423
323.965	210.915	1	1	1	376.161	140.724	218.423
323.847	209.922	1	1	1	374.075	140.724	218.423
323.729	208.929	1	1	1	399.854	140.724	218.423
323.611	207.936	1	1	1	420.334	140.724	218.423
323.494	206.943	1	1	1	432.621	140.724	218.423
323.385	205.949	1	1	1	412.376	140.724	218.423
323.276	204.955	1	1	1	425.533	140.724	218.423
323.168	203.961	1	1	1	426.770	140.724	218.423
323.059	202.967	1	1	1	418.209	140.724	218.423
322.950	201.973	1	1	1	445.126	140.724	218.423
322.841	200.979	1	1	1	425.918	140.724	218.423
322.733	199.985	1	1	1	418.970	140.724	218.423
322.624	198.990	1	1	1	442.130	140.724	218.423
322.515	197.996	1	1	1	439.116	140.724	218.423
322.407	197.002	1	1	1	435.274	140.724	218.423
322.254	196.014	1	1	1	417.697	140.724	218.423
322.011	195.044	1	1	1	413.537	140.724	218.423
321.768	194.074	1	1	1	399.390	140.724	218.423
321.526	193.104	1	1	1	375.282	140.724	218.423
321.283	192.134	1	1	1	380.506	140.724	218.423
321.041	191.163	1	1	1	360.271	140.724	218.423
320.798	190.193	1	1	1	396.372	140.724	218.423
320.625	189.208	1	1	1	410.444	140.724	218.423
320.533	188.213	1	1	1	405.059	140.724	218.423
320.442	187.217	1	1	1	400.224	140.724	218.423
320.351	186.221	1	1	1	410.297	140.724	218.423
320.259	185.225	1	1	1	406.323	140.724	218.423
319.781	184.347	1	1	1	421.082	140.724	218.423
319.265	183.490	1	1	1	426.600	140.724	218.423
318.749	182.634	1	1	1	422.807	140.724	218.423
318.233	181.777	1	1	1	425.069	140.724	218.423
317.888	180.839	1	1	1	419.225	140.724	218.423
317.569	179.891	1	1	1	386.453	140.724	218.423
317.249	178.943	1	1	1	383.868	140.724	218.423
316.930	177.996	1	1	1	354.973	140.724	218.423
316.611	177.048	1	1	1	359.757	140.724	218.423
316.292	176.100	1	1	1	341.846	140.724	218.423
315.972	175.153	1	1	1	336.579	140.724	218.423
315.653	174.205	1	1	1	337.219	140.724	218.423
315.432	173.230	1	1	1	354.411	140.724	218.423
315.302	172.238	1	1	1	347.123	140.724	218.423
315.172	171.247	1	1	1	346.697	140.724	218.423
315.042	170.255	1	1	1	365.951	140.724	218.423
314.912	169.264	1	1	1	361.637	140.724	218.423
314.782	168.272	1	1	1	368.239	140.724	218.423
314.652	167.281	1	1	1	369.570	140.724	218.423
314.522	166.289	1	1	1	358.616	140.724	218.423
314.232	165.332	1	1	1	336.142	140.724	218.423
313.913	164.384	1	1	1	355.617	140.724	218.423
313.593	163.437	1	1	1	398.112	140.724	218.423
313.273	162.489	1	1	1	394.790	140.724	218.423
312.954	161.542	1	1	1	403.182	140.724	218.423
312.634	160.594	1	1	1	426.320	140.724	218.423
312.315	159.647	1	1	1	431.480	140.724	218.423
311.995	158.699	1	1	1	451.564	140.724	218.423
311.675	157.752	1	1	1	450.373	140.724	218.423
311.356	156.804	1	1	1	431.846	140.724	218.423
311.036	155.856	1	1	1	455.043	140.724	218.423
310.727	154.906	1	1	1	443.835	140.724	218.423
310.418	153.954	1	1	1	464.959	140.724	218.423
310.110	153.003	1	1	1	496.431	140.724	218.423
309.802	152.051	1	1	1	479.470	140.724	218.423
309.494	151.100	1	1	1	501.859	140.724	218.423
309.186	150.149	1	1	1	484.064	140.724	218.423
308.878	149.197	1	1	1	460.215	140.724	218.423
308.570	148.246	1	1	1	446.453	140.724	218.423
308.262	147.295	1	1	1	434.894	140.724	218.423
307.954	146.343	1	1	1	418.053	140.724	218.423
307.646	145.392	1	1	1	421.749	140.724	218.423
307.338	144.441	1	1	1	421.837	140.724	218.423
307.030	143.489	1	1	1	407.752	140.724	218.423
306.710	142.542	1	1	1	459.459	140.724	218.423
306.273	141.642	1	1	1	461.961	140.724	218.423
305.836	140.742	1	1	1	481.669	140.724	218.423
305.400	139.843	1	1	1	451.244	140.724	218.423
304.963	138.943	1	1	1	478.006	140.724	218.423
304.527	138.044	1	1	1	466.976	140.724	218.423
304.090	137.144	1	1	1	451.534	140.724	218.423
303.653	136.244	1	1	1	453.367	140.724	218.423
303.217	135.345	1	1	1	471.235	140.724	218.423
302.780	134.445	1	1	1	471.302	140.724	218.423
302.198	133.632	1	1	1	469.554	140.724	218.423
301.543	132.876	1	1	1	478.517	140.724	218.423
300.889	132.120	1	1	1	477.608	140.724	218.423
300.234	131.364	1	1	1	436.527	140.724	218.423
299.579	130.608	1	1	1	395.500	140.724	218.423
298.925	129.852	1	1	1	359.958	140.724	218.423
298.270	129.096	1	1	1	351.155	140.724	218.423
297.616	128.340	1	1	1	353.275	140.724	218.423
296.961	127.584	1	1	1	365.852	140.724	218.423
296.306	126.828	1	1	1	358.913	140.724	218.423
295.652	126.072	1	1	1	370.348	140.724	218.423
294.997	125.316	1	1	1	365.184	140.724	218.423
294.342	124.561	1	1	1	366.842	140.724	218.423
293.688	123.805	1	1	1	358.044	140.724	218.423
293.033	123.049	1	1	1	370.721	140.724	218.423
292.378	122.293	1	1	1	378.650	140.724	218.423
291.695	121.563	1	1	1	354.914	140.724	218.423
290.994	120.849	1	1	1	349.382	140.724	218.423
290.293	120.136	1	1	1	365.390	140.724	218.423
289.592	119.423	1	1	1	340.742	140.724	218.423
288.891	118.710	1	1	1	343.611	140.724	218.423
288.190	117.996	1	1	1	347.378	140.724	218.423
287.490	117.283	1	1	1	369.335	140.724	218.423
286.789	116.570	1	1	1	379.372	140.724	218.423
286.088	115.857	1	1	1	374.764	140.724	218.423
285.387	115.144	1	1	1	363.590	140.724	218.423
284.649	114.468	1	1	1	398.112	140.724	218.423
283.870	113.842	1	1	1	376.528	140.724	218.423
283.090	113.215	1	1	1	369.127	140.724	218.423
282.311	112.589	1	1	1	365.739	140.724	218.423
281.531	111.963	1	1	1	379.334	140.724	218.423
280.752	111.336	1	1	1	377.434	140.724	218.423
279.972	110.710	1	1	1	376.797	140.724	218.423
279.193	110.083	1	1	1	371.280	140.724	218.423
278.413	109.457	1	1	1	382.086	140.724	218.423
277.604	108.870	1	1	1	361.255	140.724	218.423
276.764	108.327	1	1	1	369.789	140.724	218.423
275.923	107.785	1	1	1	371.625	140.724	218.423
275.083	107.243	1	1	1	386.227	140.724	218.423
274.243	106.701	1	1	1	379.135	140.724	218.423
273.402	106.159	1	1	1	410.403	140.724	218.423
272.562	105.617	1	1	1	435.732	140.724	218.423
271.722	105.075	1	1	1	419.507	140.724	218.423
270.882	104.532	1	1	1	440.793	140.724	218.423
270.041	103.990	1	1	1	427.584	140.724	218.423
269.201	103.448	1	1	1	412.446	140.724	218.423
268.361	102.906	1	1	1	402.239	140.724	218.423
267.520	102.364	1	1	1	395.626	140.724	218.423
266.680	101.822	1	1	1	406.498	140.724	218.423
265.837	101.285	1	1	1	371.552	140.724	218.423
264.991	100.751	1	1	1	368.369	140.724	218.423
264.146	100.217	1	1	1	390.844	140.724	218.423
263.300	99.683	1	1	1	389.837	140.724	218.423
262.455	99.149	1	1	1	382.904	140.724	218.423
261.609	98.615	1	1	1	410.318	140.724	218.423
260.764	98.081	1	1	1	427.600	140.724	218.423
259.918	97.547	1	1	1	433.636	140.724	218.423
259.072	97.014	1	1	1	447.317	140.724	218.423
258.223	96.485	1	1	1	455.646	140.724	218.423
257.375	95.956	1	1	1	443.599	140.724	218.423
256.526	95.427	1	1	1	411.118	140.724	218.423
255.677	94.898	1	1	1	407.609	140.724	218.423
254.828	94.370	1	1	1	391.817	140.724	218.423
253.980	93.841	1	1	1	385.646	140.724	218.423
253.131	93.312	1	1	1	402.606	140.724	218.423
252.282	92.783	1	1	1	410.995	140.724	218.423
251.434	92.254	1	1	1	426.497	140.724	218.423
250.579	91.735	1	1	1	416.222	140.724	218.423
249.627	91.430	1	1	1	407.278	140.724	218.423
248.675	91.124	1	1	1	393.867	140.724	218.423
247.722	90.818	1	1	1	394.805	140.724	218.423
246.770	90.513	1	1	1	387.064	140.724	218.423
245.818	90.207	1	1	1	389.544	140.724	218.423
244.866	89.901	1	1	1	390.152	140.724	218.423
243.914	89.596	1	1	1	400.976	140.724	218.423
242.962	89.290	1	1	1	415.759	140.724	218.423
242.009	88.985	1	1	1	426.250	140.724	218.423
241.057	88.679	1	1	1	493.040	140.724	218.423
240.082	88.458	1	1	1	471.573	140.724	218.423
239.087	88.359	1	1	1	485.086	140.724	218.423
238.092	88.259	1	1	1	461.135	140.724	218.423
237.097	88.160	1	1	1	448.225	140.724	218.423
236.102	88.060	1	1	1	428.762	140.724	218.423
235.107	87.961	1	1	1	408.706	140.724	218.423
234.112	87.861	1	1	1	392.710	140.724	218.423
233.117	87.762	1	1	1	362.827	140.724	218.423
232.122	87.662	1	1	1	365.165	140.724	218.423
231.127	87.563	1	1	1	353.041	140.724	218.423
230.132	87.463	1	1	1	354.862	140.724	218.423
229.137	87.364	1	1	1	364.189	140.724	218.423
228.142	87.264	1	1	1	392.793	140.724	218.423
227.147	87.165	1	1	1	382.191	140.724	218.423
226.151	87.065	1	1	1	378.012	140.724	218.423
225.159	86.943	1	1	1	381.929	140.724	218.423
224.173	86.779	1	1	1	392.108	140.724	218.423
223.186	86.614	1	1	1	393.827	140.724	218.423
222.200	86.450	1	1	1	397.465	140.724	218.423
221.213	86.286	1	1	1	395.879	140.724	218.423
220.227	86.121	1	1	1	388.660	140.724	218.423
219.241	85.957	1	1	1	395.428	140.724	218.423
218.254	85.792	1	1	1	397.236	140.724	218.423
217.265	85.643	1	1	1	397.670	140.724	218.423
216.270	85.545	1	1	1	420.525	140.724	218.423
215.275	85.446	1	1	1	406.416	140.724	218.423
214.280	85.348	1	1	1	400.865	140.724	218.423
213.285	85.249	1	1	1	417.474	140.724	218.423
212.290	85.151	1	1	1	441.209	140.724	218.423
211.295	85.052	1	1	1	432.289	140.724	218.423
210.299	84.954	1	1	1	427.579	140.724	218.423
209.304	84.855	1	1	1	424.350	140.724	218.423
208.309	84.757	1	1	1	405.229	140.724	218.423
207.314	84.658	1	1	1	396.555	140.724	218.423
206.319	84.560	1	1	1	387.663	140.724	218.423
205.324	84.461	1	1	1	385.904	140.724	218.423
204.329	84.363	1	1	1	402.883	140.724	218.423
203.333	84.264	1	1	1	417.586	140.724	218.423
202.338	84.166	1	1	1	428.772	140.724	218.423
201.343	84.067	1	1	1	421.104	140.724	218.423
200.349	83.961	1	1	1	404.290	140.724	218.423
199.356	83.841	1	1	1	397.887	140.724	218.423
198.363	83.721	1	1	1	383.507	140.724	218.423
197.371	83.600	1	1	1	393.347	140.724	218.423
196.378	83.480	1	1	1	393.842	140.724	218.423
195.385	83.360	1	1	1	385.519	140.724	218.423
194.392	83.239	1	1	1	384.191	140.724	218.423
193.400	83.119	1	1	1	380.226	140.724	218.423
192.407	82.999	1	1	1	397.707	140.724	218.423
191.414	82.878	1	1	1	415.222	140.724	218.423
190.421	82.758	1	1	1	424.320	140.724	218.423
189.428	82.639	1	1	1	429.961	140.724	218.423
188.435	82.526	1	1	1	452.426	140.724	218.423
187.441	82.413	1	1	1	465.652	140.724	218.423
186.448	82.299	1	1	1	449.776	140.724	218.423
185.454	82.186	1	1	1	450.295	140.724	218.423
184.461	82.073	1	1	1	457.507	140.724	218.423
183.467	81.959	1	1	1	447.330	140.724	218.423
182.474	81.846	1	1	1	455.315	140.724	218.423
181.480	81.733	1	1	1	444.240	140.724	218.423
180.487	81.619	1	1	1	450.087	140.724	218.423
179.493	81.506	1	1	1	476.696	140.724	218.423
178.499	81.393	1	1	1	487.479	140.724	218.423
177.506	81.279	1	1	1	492.126	140.724	218.423
176.507	81.326	1	1	1	468.205	140.724	218.423
175.512	81.428	1	1	1	445.095	140.724	218.423
174.517	81.530	1	1	1	458.533	140.724	218.423
173.523	81.632	1	1	1	466.307	140.724	218.423
172.528	81.734	1	1	1	450.352	140.724	218.423
171.533	81.836	1	1	1	440.542	140.724	218.423
170.538	81.938	1	1	1	446.428	140.724	218.423
169.543	82.040	1	1	1	455.056	140.724	218.423
168.549	82.142	1	1	1	457.252	140.724	218.423
167.554	82.244	1	1	1	461.398	140.724	218.423
166.632	82.632	1	1	1	472.629	140.724	218.423
165.717	83.035	1	1	1	468.769	140.724	218.423
164.801	83.437	1	1	1	426.646	140.724	218.423
163.886	83.840	1	1	1	439.205	140.724	218.423
162.971	84.243	1	1	1	426.373	140.724	218.423
162.055	84.646	1	1	1	446.689	140.724	218.423
161.140	85.048	1	1	1	459.696	140.724	218.423
160.225	85.451	1	1	1	455.339	140.724	218.423
159.310	85.854	1	1	1	465.950	140.724	218.423
158.394	86.257	1	1	1	456.539	140.724	218.423
157.479	86.659	1	1	1	452.581	140.724	218.423
156.564	87.062	1	1	1	454.582	140.724	218.423
155.648	87.465	1	1	1	430.538	140.724	218.423
154.738	87.878	1	1	1	430.017	140.724	218.423
153.839	88.316	1	1	1	409.506	140.724	218.423
152.940	88.754	1	1	1	405.761	140.724	218.423
152.041	89.192	1	1	1	391.370	140.724	218.423
151.142	89.630	1	1	1	403.779	140.724	218.423
150.243	90.068	1	1	1	407.765	140.724	218.423
149.344	90.506	1	1	1	415.228	140.724	218.423
148.445	90.944	1	1	1	428.836	140.724	218.423
147.546	91.382	1	1	1	435.614	140.724	218.423
146.647	91.820	1	1	1	434.192	140.724	218.423
145.748	92.258	1	1	1	439.731	140.724	218.423
144.854	92.707	1	1	1	430.817	140.724	218.423
143.968	93.170	1	1	1	417.711	140.724	218.423
143.082	93.633	1	1	1	405.316	140.724	218.423
142.196	94.097	1	1	1	403.292	140.724	218.423
141.309	94.560	1	1	1	385.669	140.724	218.423
140.423	95.023	1	1	1	405.547	140.724	218.423
139.537	95.486	1	1	1	433.507	140.724	218.423
138.651	95.950	1	1	1	430.380	140.724	218.423
137.764	96.413	1	1	1	437.729	140.724	218.423
136.878	96.876	1	1	1	439.442	140.724	218.423
135.992	97.339	1	1	1	421.488	140.724	218.423
135.106	97.803	1	1	1	414.498	140.724	218.423
134.223	98.272	1	1	1	431.301	140.724	218.423
133.447	98.903	1	1	1	446.491	140.724	218.423
132.671	99.533	1	1	1	430.710	140.724	218.423
131.894	100.164	1	1	1	444.216	140.724	218.423
131.118	100.794	1	1	1	478.531	140.724	218.423
130.342	101.425	1	1	1	470.496	140.724	218.423
129.566	102.056	1	1	1	467.422	140.724	218.423
128.790	102.686	1	1	1	473.673	140.724	218.423
128.014	103.317	1	1	1	460.062	140.724	218.423
127.238	103.947	1	1	1	472.145	140.724	218.423
126.462	104.578	1	1	1	485.652	140.724	218.423
125.769	105.299	1	1	1	454.324	140.724	218.423
125.111	106.052	1	1	1	466.716	140.724	218.423
124.452	106.805	1	1	1	430.181	140.724	218.423
123.794	107.557	1	1	1	441.643	140.724	218.423
123.135	108.310	1	1	1	421.284	140.724	218.423
122.477	109.062	1	1	1	399.229	140.724	218.423
121.818	109.815	1	1	1	415.169	140.724	218.423
121.160	110.567	1	1	1	403.477	140.724	218.423
120.501	111.320	1	1	1	409.067	140.724	218.423
119.843	112.073	1	1	1	393.906	140.724	218.423
