X	Y	C	Z	T	Intensity	BG	MX
91.833	151.500	2	1	1	247.897	105.144	180.617
91.357	152.379	2	1	1	272.029	105.144	180.617
90.881	153.259	2	1	1	312.319	105.144	180.617
90.404	154.138	2	1	1	356.289	105.144	180.617
89.928	155.017	2	1	1	360.528	105.144	180.617
89.452	155.896	2	1	1	357.814	105.144	180.617
88.976	156.776	2	1	1	328.366	105.144	180.617
88.499	157.655	2	1	1	295.322	105.144	180.617
88.023	158.534	2	1	1	272.000	105.144	180.617
87.547	159.414	2	1	1	234.091	105.144	180.617
87.114	160.315	2	1	1	226.889	105.144	180.617
86.686	161.219	2	1	1	237.782	105.144	180.617
86.258	162.123	2	1	1	239.942	105.144	180.617
85.830	163.026	2	1	1	246.931	105.144	180.617
85.402	163.930	2	1	1	246.936	105.144	180.617
84.973	164.834	2	1	1	229.527	105.144	180.617
84.545	165.738	2	1	1	219.284	105.144	180.617
84.117	166.641	2	1	1	208.489	105.144	180.617
83.689	167.545	2	1	1	212.769	105.144	180.617
83.261	168.449	2	1	1	226.030	105.144	180.617
82.833	169.352	2	1	1	233.362	105.144	180.617
82.405	170.256	2	1	1	242.151	105.144	180.617
81.977	171.160	2	1	1	245.641	105.144	180.617
81.549	172.064	2	1	1	235.514	105.144	180.617
81.381	173.050	2	1	1	226.925	105.144	180.617
81.248	174.041	2	1	1	228.591	105.144	180.617
81.114	175.032	2	1	1	213.778	105.144	180.617
80.981	176.023	2	1	1	195.695	105.144	180.617
80.848	177.014	2	1	1	181.315	105.144	180.617
80.714	178.005	2	1	1	171.457	105.144	180.617
80.581	178.996	2	1	1	174.242	105.144	180.617
80.447	179.987	2	1	1	183.361	105.144	180.617
80.314	180.978	2	1	1	182.412	105.144	180.617
80.180	181.969	2	1	1	184.935	105.144	180.617
80.047	182.960	2	1	1	187.351	105.144	180.617
79.914	183.951	2	1	1	193.811	105.144	180.617
79.780	184.942	2	1	1	203.440	105.144	180.617
79.647	185.933	2	1	1	249.697	105.144	180.617
79.513	186.924	2	1	1	301.765	105.144	180.617
79.380	187.915	2	1	1	343.329	105.144	180.617
79.247	188.906	2	1	1	328.010	105.144	180.617
79.118	189.898	2	1	1	303.807	105.144	180.617
78.998	190.891	2	1	1	265.009	105.144	180.617
78.877	191.884	2	1	1	256.881	105.144	180.617
78.756	192.876	2	1	1	244.318	105.144	180.617
78.635	193.869	2	1	1	265.771	105.144	180.617
78.515	194.862	2	1	1	272.734	105.144	180.617
78.394	195.854	2	1	1	270.604	105.144	180.617
78.273	196.847	2	1	1	275.190	105.144	180.617
78.152	197.840	2	1	1	272.337	105.144	180.617
78.032	198.832	2	1	1	283.639	105.144	180.617
77.911	199.825	2	1	1	325.366	105.144	180.617
77.790	200.818	2	1	1	335.331	105.144	180.617
77.669	201.810	2	1	1	335.436	105.144	180.617
77.549	202.803	2	1	1	305.857	105.144	180.617
77.428	203.796	2	1	1	304.097	105.144	180.617
77.307	204.789	2	1	1	335.036	105.144	180.617
77.187	205.781	2	1	1	409.969	105.144	180.617
77.066	206.774	2	1	1	489.965	105.144	180.617
76.945	207.767	2	1	1	531.367	105.144	180.617
76.824	208.759	2	1	1	519.571	105.144	180.617
76.704	209.752	2	1	1	469.051	105.144	180.617
76.583	210.745	2	1	1	377.669	105.144	180.617
76.462	211.737	2	1	1	295.025	105.144	180.617
76.341	212.730	2	1	1	238.491	105.144	180.617
76.221	213.723	2	1	1	211.561	105.144	180.617
76.178	214.722	2	1	1	214.347	105.144	180.617
76.198	215.722	2	1	1	235.038	105.144	180.617
76.219	216.721	2	1	1	270.125	105.144	180.617
76.239	217.721	2	1	1	339.383	105.144	180.617
76.260	218.721	2	1	1	397.749	105.144	180.617
76.280	219.721	2	1	1	480.972	105.144	180.617
76.300	220.721	2	1	1	533.964	105.144	180.617
76.321	221.720	2	1	1	559.983	105.144	180.617
76.341	222.720	2	1	1	553.510	105.144	180.617
76.362	223.720	2	1	1	501.264	105.144	180.617
76.382	224.720	2	1	1	447.186	105.144	180.617
76.402	225.719	2	1	1	353.091	105.144	180.617
76.423	226.719	2	1	1	303.719	105.144	180.617
76.443	227.719	2	1	1	264.709	105.144	180.617
76.464	228.719	2	1	1	250.397	105.144	180.617
76.484	229.719	2	1	1	260.067	105.144	180.617
76.567	230.715	2	1	1	254.557	105.144	180.617
76.864	231.670	2	1	1	256.733	105.144	180.617
77.161	232.625	2	1	1	273.170	105.144	180.617
77.458	233.580	2	1	1	304.098	105.144	180.617
77.755	234.535	2	1	1	302.701	105.144	180.617
78.052	235.489	2	1	1	289.198	105.144	180.617
78.349	236.444	2	1	1	269.363	105.144	180.617
78.646	237.399	2	1	1	253.056	105.144	180.617
78.943	238.354	2	1	1	247.808	105.144	180.617
79.241	239.309	2	1	1	253.955	105.144	180.617
79.538	240.264	2	1	1	265.579	105.144	180.617
79.835	241.219	2	1	1	292.627	105.144	180.617
80.132	242.173	2	1	1	336.277	105.144	180.617
80.429	243.128	2	1	1	361.384	105.144	180.617
80.726	244.083	2	1	1	371.948	105.144	180.617
81.023	245.038	2	1	1	388.770	105.144	180.617
81.320	245.993	2	1	1	441.124	105.144	180.617
81.617	246.948	2	1	1	503.378	105.144	180.617
81.914	247.903	2	1	1	623.188	105.144	180.617
82.211	248.857	2	1	1	688.301	105.144	180.617
82.508	249.812	2	1	1	765.886	105.144	180.617
82.805	250.767	2	1	1	760.472	105.144	180.617
83.102	251.722	2	1	1	726.028	105.144	180.617
83.399	252.677	2	1	1	640.640	105.144	180.617
83.677	253.638	2	1	1	530.380	105.144	180.617
83.945	254.601	2	1	1	452.331	105.144	180.617
84.212	255.565	2	1	1	391.794	105.144	180.617
84.480	256.528	2	1	1	322.887	105.144	180.617
84.748	257.492	2	1	1	291.298	105.144	180.617
85.015	258.455	2	1	1	261.009	105.144	180.617
85.283	259.419	2	1	1	233.232	105.144	180.617
85.551	260.382	2	1	1	244.624	105.144	180.617
85.818	261.346	2	1	1	260.623	105.144	180.617
86.086	262.309	2	1	1	281.510	105.144	180.617
86.354	263.273	2	1	1	311.312	105.144	180.617
86.621	264.236	2	1	1	360.344	105.144	180.617
86.889	265.200	2	1	1	349.497	105.144	180.617
87.156	266.163	2	1	1	349.392	105.144	180.617
87.424	267.127	2	1	1	334.448	105.144	180.617
87.692	268.090	2	1	1	326.936	105.144	180.617
87.959	269.054	2	1	1	335.541	105.144	180.617
88.227	270.017	2	1	1	388.444	105.144	180.617
88.495	270.981	2	1	1	474.732	105.144	180.617
88.987	271.852	2	1	1	475.975	105.144	180.617
89.483	272.720	2	1	1	422.465	105.144	180.617
89.979	273.588	2	1	1	348.194	105.144	180.617
90.475	274.456	2	1	1	272.210	105.144	180.617
90.971	275.325	2	1	1	252.135	105.144	180.617
91.467	276.193	2	1	1	248.183	105.144	180.617
91.963	277.061	2	1	1	255.672	105.144	180.617
92.460	277.929	2	1	1	276.959	105.144	180.617
92.956	278.798	2	1	1	293.945	105.144	180.617
93.452	279.666	2	1	1	317.828	105.144	180.617
93.948	280.534	2	1	1	334.165	105.144	180.617
94.444	281.402	2	1	1	294.193	105.144	180.617
94.940	282.270	2	1	1	261.893	105.144	180.617
95.436	283.139	2	1	1	247.987	105.144	180.617
95.933	284.007	2	1	1	256.411	105.144	180.617
96.429	284.875	2	1	1	264.512	105.144	180.617
97.072	285.641	2	1	1	305.474	105.144	180.617
97.738	286.387	2	1	1	340.932	105.144	180.617
98.404	287.133	2	1	1	338.296	105.144	180.617
99.070	287.879	2	1	1	336.220	105.144	180.617
99.736	288.624	2	1	1	324.900	105.144	180.617
100.402	289.370	2	1	1	368.158	105.144	180.617
101.068	290.116	2	1	1	461.557	105.144	180.617
101.734	290.862	2	1	1	550.524	105.144	180.617
102.400	291.608	2	1	1	576.457	105.144	180.617
103.066	292.354	2	1	1	537.413	105.144	180.617
103.732	293.100	2	1	1	400.313	105.144	180.617
104.398	293.846	2	1	1	318.894	105.144	180.617
105.064	294.592	2	1	1	266.442	105.144	180.617
105.730	295.338	2	1	1	257.132	105.144	180.617
106.396	296.084	2	1	1	236.678	105.144	180.617
107.062	296.830	2	1	1	234.082	105.144	180.617
107.728	297.576	2	1	1	249.172	105.144	180.617
108.394	298.322	2	1	1	268.042	105.144	180.617
109.069	299.060	2	1	1	328.568	105.144	180.617
109.822	299.718	2	1	1	389.388	105.144	180.617
110.575	300.376	2	1	1	411.489	105.144	180.617
111.328	301.034	2	1	1	410.444	105.144	180.617
112.081	301.691	2	1	1	379.608	105.144	180.617
112.835	302.349	2	1	1	309.450	105.144	180.617
113.588	303.007	2	1	1	268.069	105.144	180.617
114.341	303.665	2	1	1	224.166	105.144	180.617
115.094	304.323	2	1	1	227.859	105.144	180.617
115.847	304.980	2	1	1	242.212	105.144	180.617
116.600	305.638	2	1	1	273.871	105.144	180.617
117.354	306.296	2	1	1	302.120	105.144	180.617
118.107	306.954	2	1	1	347.185	105.144	180.617
118.860	307.612	2	1	1	373.476	105.144	180.617
119.613	308.270	2	1	1	372.767	105.144	180.617
120.366	308.927	2	1	1	364.218	105.144	180.617
121.119	309.585	2	1	1	417.241	105.144	180.617
121.873	310.243	2	1	1	488.182	105.144	180.617
122.701	310.804	2	1	1	591.184	105.144	180.617
123.570	311.298	2	1	1	634.857	105.144	180.617
124.439	311.793	2	1	1	625.522	105.144	180.617
125.308	312.287	2	1	1	509.360	105.144	180.617
126.177	312.782	2	1	1	434.475	105.144	180.617
127.046	313.276	2	1	1	385.333	105.144	180.617
127.916	313.771	2	1	1	326.907	105.144	180.617
128.785	314.265	2	1	1	306.854	105.144	180.617
129.654	314.760	2	1	1	321.775	105.144	180.617
130.523	315.255	2	1	1	303.325	105.144	180.617
131.392	315.749	2	1	1	284.942	105.144	180.617
132.261	316.244	2	1	1	290.438	105.144	180.617
133.131	316.738	2	1	1	320.328	105.144	180.617
134.000	317.233	2	1	1	376.382	105.144	180.617
134.869	317.727	2	1	1	395.828	105.144	180.617
135.738	318.222	2	1	1	415.981	105.144	180.617
136.607	318.716	2	1	1	385.217	105.144	180.617
137.476	319.211	2	1	1	331.499	105.144	180.617
138.346	319.705	2	1	1	291.096	105.144	180.617
139.215	320.200	2	1	1	261.513	105.144	180.617
140.084	320.694	2	1	1	245.145	105.144	180.617
140.953	321.189	2	1	1	225.526	105.144	180.617
141.869	321.589	2	1	1	215.688	105.144	180.617
142.841	321.825	2	1	1	210.127	105.144	180.617
143.813	322.060	2	1	1	201.025	105.144	180.617
144.785	322.295	2	1	1	202.795	105.144	180.617
145.757	322.530	2	1	1	207.813	105.144	180.617
146.729	322.765	2	1	1	228.294	105.144	180.617
147.701	323.000	2	1	1	227.143	105.144	180.617
148.673	323.235	2	1	1	245.621	105.144	180.617
149.645	323.471	2	1	1	280.591	105.144	180.617
150.617	323.706	2	1	1	328.344	105.144	180.617
151.589	323.941	2	1	1	362.010	105.144	180.617
152.561	324.176	2	1	1	336.251	105.144	180.617
153.533	324.411	2	1	1	323.382	105.144	180.617
154.505	324.646	2	1	1	334.427	105.144	180.617
155.477	324.881	2	1	1	340.488	105.144	180.617
156.449	325.117	2	1	1	324.039	105.144	180.617
157.421	325.352	2	1	1	321.923	105.144	180.617
158.393	325.587	2	1	1	364.089	105.144	180.617
159.365	325.822	2	1	1	418.721	105.144	180.617
160.337	326.057	2	1	1	460.106	105.144	180.617
161.309	326.292	2	1	1	460.382	105.144	180.617
162.284	326.514	2	1	1	425.669	105.144	180.617
163.276	326.636	2	1	1	392.371	105.144	180.617
164.269	326.757	2	1	1	400.677	105.144	180.617
165.261	326.879	2	1	1	453.944	105.144	180.617
166.254	327.000	2	1	1	470.177	105.144	180.617
167.247	327.122	2	1	1	456.881	105.144	180.617
168.239	327.244	2	1	1	456.918	105.144	180.617
169.232	327.365	2	1	1	443.568	105.144	180.617
170.224	327.487	2	1	1	483.351	105.144	180.617
171.217	327.608	2	1	1	509.101	105.144	180.617
172.209	327.730	2	1	1	475.720	105.144	180.617
173.202	327.851	2	1	1	414.737	105.144	180.617
174.195	327.973	2	1	1	395.346	105.144	180.617
175.187	328.094	2	1	1	408.744	105.144	180.617
176.180	328.216	2	1	1	413.300	105.144	180.617
177.172	328.337	2	1	1	430.936	105.144	180.617
178.165	328.459	2	1	1	427.201	105.144	180.617
179.158	328.577	2	1	1	392.894	105.144	180.617
180.151	328.692	2	1	1	365.634	105.144	180.617
181.145	328.808	2	1	1	352.765	105.144	180.617
182.138	328.923	2	1	1	368.441	105.144	180.617
183.131	329.039	2	1	1	446.934	105.144	180.617
184.125	329.154	2	1	1	515.089	105.144	180.617
185.118	329.270	2	1	1	608.214	105.144	180.617
186.111	329.385	2	1	1	638.161	105.144	180.617
187.105	329.501	2	1	1	603.809	105.144	180.617
188.098	329.616	2	1	1	535.803	105.144	180.617
189.091	329.732	2	1	1	452.860	105.144	180.617
190.084	329.847	2	1	1	394.104	105.144	180.617
191.078	329.963	2	1	1	377.326	105.144	180.617
192.071	330.078	2	1	1	357.153	105.144	180.617
193.064	330.194	2	1	1	338.281	105.144	180.617
194.058	330.309	2	1	1	297.696	105.144	180.617
195.051	330.425	2	1	1	272.400	105.144	180.617
196.044	330.540	2	1	1	286.532	105.144	180.617
197.038	330.656	2	1	1	265.328	105.144	180.617
198.031	330.771	2	1	1	264.451	105.144	180.617
199.024	330.887	2	1	1	268.845	105.144	180.617
200.018	331.001	2	1	1	328.286	105.144	180.617
201.015	331.073	2	1	1	435.259	105.144	180.617
202.012	331.144	2	1	1	569.200	105.144	180.617
203.010	331.215	2	1	1	732.992	105.144	180.617
204.007	331.286	2	1	1	752.888	105.144	180.617
205.005	331.357	2	1	1	719.508	105.144	180.617
206.002	331.429	2	1	1	605.078	105.144	180.617
207.000	331.500	2	1	1	462.338	105.144	180.617
207.997	331.571	2	1	1	357.405	105.144	180.617
208.995	331.642	2	1	1	303.786	105.144	180.617
209.992	331.714	2	1	1	289.051	105.144	180.617
210.990	331.785	2	1	1	296.033	105.144	180.617
211.987	331.856	2	1	1	312.334	105.144	180.617
212.985	331.927	2	1	1	341.419	105.144	180.617
213.982	331.999	2	1	1	336.842	105.144	180.617
214.953	331.762	2	1	1	324.841	105.144	180.617
215.924	331.519	2	1	1	299.756	105.144	180.617
216.894	331.277	2	1	1	304.651	105.144	180.617
217.864	331.034	2	1	1	307.016	105.144	180.617
218.834	330.791	2	1	1	311.040	105.144	180.617
219.804	330.549	2	1	1	314.311	105.144	180.617
220.774	330.306	2	1	1	313.989	105.144	180.617
221.745	330.064	2	1	1	320.426	105.144	180.617
222.715	329.821	2	1	1	378.855	105.144	180.617
223.685	329.579	2	1	1	397.989	105.144	180.617
224.655	329.336	2	1	1	408.052	105.144	180.617
225.625	329.094	2	1	1	377.120	105.144	180.617
226.603	328.885	2	1	1	379.230	105.144	180.617
227.585	328.698	2	1	1	369.038	105.144	180.617
228.568	328.511	2	1	1	367.839	105.144	180.617
229.550	328.324	2	1	1	430.522	105.144	180.617
230.532	328.137	2	1	1	508.583	105.144	180.617
231.515	327.950	2	1	1	655.879	105.144	180.617
232.497	327.762	2	1	1	778.524	105.144	180.617
233.479	327.575	2	1	1	847.278	105.144	180.617
234.462	327.388	2	1	1	865.878	105.144	180.617
235.444	327.201	2	1	1	797.478	105.144	180.617
236.426	327.014	2	1	1	600.678	105.144	180.617
237.336	326.599	2	1	1	434.177	105.144	180.617
238.238	326.166	2	1	1	349.308	105.144	180.617
239.139	325.733	2	1	1	321.341	105.144	180.617
240.041	325.300	2	1	1	339.641	105.144	180.617
240.942	324.868	2	1	1	376.005	105.144	180.617
241.844	324.435	2	1	1	450.355	105.144	180.617
242.745	324.002	2	1	1	559.694	105.144	180.617
243.647	323.570	2	1	1	601.657	105.144	180.617
244.548	323.137	2	1	1	646.150	105.144	180.617
245.450	322.704	2	1	1	591.614	105.144	180.617
246.351	322.271	2	1	1	555.342	105.144	180.617
247.253	321.839	2	1	1	537.321	105.144	180.617
248.154	321.406	2	1	1	481.685	105.144	180.617
249.050	320.960	2	1	1	406.562	105.144	180.617
249.831	320.337	2	1	1	343.334	105.144	180.617
250.613	319.713	2	1	1	281.701	105.144	180.617
251.394	319.089	2	1	1	259.746	105.144	180.617
252.176	318.465	2	1	1	241.854	105.144	180.617
252.958	317.841	2	1	1	232.209	105.144	180.617
253.739	317.217	2	1	1	240.562	105.144	180.617
254.521	316.594	2	1	1	274.329	105.144	180.617
255.302	315.970	2	1	1	264.240	105.144	180.617
256.084	315.346	2	1	1	250.229	105.144	180.617
256.865	314.722	2	1	1	242.707	105.144	180.617
257.647	314.098	2	1	1	243.761	105.144	180.617
258.428	313.475	2	1	1	224.768	105.144	180.617
259.210	312.851	2	1	1	225.936	105.144	180.617
259.992	312.227	2	1	1	230.292	105.144	180.617
260.773	311.603	2	1	1	227.619	105.144	180.617
261.555	310.979	2	1	1	241.411	105.144	180.617
262.336	310.355	2	1	1	279.973	105.144	180.617
263.118	309.732	2	1	1	373.116	105.144	180.617
263.899	309.108	2	1	1	510.291	105.144	180.617
264.681	308.484	2	1	1	561.917	105.144	180.617
265.463	307.860	2	1	1	528.107	105.144	180.617
266.244	307.236	2	1	1	435.959	105.144	180.617
267.026	306.612	2	1	1	366.158	105.144	180.617
267.871	306.078	2	1	1	343.839	105.144	180.617
268.728	305.563	2	1	1	329.495	105.144	180.617
269.586	305.049	2	1	1	330.213	105.144	180.617
270.443	304.534	2	1	1	328.528	105.144	180.617
271.301	304.020	2	1	1	336.454	105.144	180.617
272.158	303.505	2	1	1	341.750	105.144	180.617
273.016	302.991	2	1	1	323.229	105.144	180.617
273.873	302.476	2	1	1	288.567	105.144	180.617
274.731	301.962	2	1	1	256.781	105.144	180.617
275.588	301.447	2	1	1	240.349	105.144	180.617
276.446	300.933	2	1	1	226.245	105.144	180.617
277.303	300.418	2	1	1	219.430	105.144	180.617
278.161	299.904	2	1	1	212.499	105.144	180.617
279.018	299.389	2	1	1	215.880	105.144	180.617
279.876	298.875	2	1	1	225.246	105.144	180.617
280.690	298.295	2	1	1	231.313	105.144	180.617
281.369	297.560	2	1	1	215.038	105.144	180.617
282.048	296.826	2	1	1	207.303	105.144	180.617
282.727	296.092	2	1	1	205.436	105.144	180.617
283.406	295.358	2	1	1	214.198	105.144	180.617
284.085	294.624	2	1	1	205.643	105.144	180.617
284.764	293.890	2	1	1	193.694	105.144	180.617
285.443	293.156	2	1	1	182.724	105.144	180.617
286.122	292.422	2	1	1	179.117	105.144	180.617
286.801	291.688	2	1	1	168.533	105.144	180.617
287.480	290.954	2	1	1	179.523	105.144	180.617
288.160	290.219	2	1	1	171.990	105.144	180.617
288.839	289.485	2	1	1	175.904	105.144	180.617
289.518	288.751	2	1	1	174.605	105.144	180.617
290.197	288.017	2	1	1	174.851	105.144	180.617
290.876	287.283	2	1	1	173.797	105.144	180.617
291.555	286.549	2	1	1	173.633	105.144	180.617
292.234	285.815	2	1	1	162.741	105.144	180.617
292.882	285.054	2	1	1	169.837	105.144	180.617
293.279	284.135	2	1	1	179.650	105.144	180.617
293.675	283.217	2	1	1	184.162	105.144	180.617
294.072	282.299	2	1	1	193.139	105.144	180.617
294.468	281.381	2	1	1	212.443	105.144	180.617
294.864	280.463	2	1	1	239.892	105.144	180.617
295.261	279.545	2	1	1	273.085	105.144	180.617
295.657	278.627	2	1	1	310.854	105.144	180.617
296.054	277.709	2	1	1	356.101	105.144	180.617
296.450	276.791	2	1	1	359.402	105.144	180.617
296.847	275.873	2	1	1	382.256	105.144	180.617
297.243	274.955	2	1	1	409.561	105.144	180.617
297.639	274.037	2	1	1	452.293	105.144	180.617
298.036	273.119	2	1	1	426.454	105.144	180.617
298.432	272.201	2	1	1	385.030	105.144	180.617
298.829	271.283	2	1	1	334.596	105.144	180.617
299.243	270.373	2	1	1	301.876	105.144	180.617
299.760	269.516	2	1	1	308.836	105.144	180.617
300.276	268.660	2	1	1	310.823	105.144	180.617
300.793	267.804	2	1	1	295.240	105.144	180.617
301.309	266.948	2	1	1	283.750	105.144	180.617
301.826	266.091	2	1	1	259.408	105.144	180.617
302.342	265.235	2	1	1	241.929	105.144	180.617
302.859	264.379	2	1	1	226.872	105.144	180.617
303.375	263.522	2	1	1	233.752	105.144	180.617
303.892	262.666	2	1	1	213.317	105.144	180.617
304.408	261.810	2	1	1	205.215	105.144	180.617
304.925	260.953	2	1	1	200.282	105.144	180.617
305.441	260.097	2	1	1	196.599	105.144	180.617
305.545	259.103	2	1	1	197.091	105.144	180.617
305.595	258.104	2	1	1	205.867	105.144	180.617
305.645	257.105	2	1	1	211.304	105.144	180.617
305.695	256.106	2	1	1	201.904	105.144	180.617
305.745	255.108	2	1	1	204.698	105.144	180.617
305.795	254.109	2	1	1	214.371	105.144	180.617
305.845	253.110	2	1	1	205.207	105.144	180.617
305.894	252.111	2	1	1	198.423	105.144	180.617
305.944	251.113	2	1	1	207.938	105.144	180.617
305.994	250.114	2	1	1	216.888	105.144	180.617
306.000	249.114	2	1	1	209.927	105.144	180.617
306.000	248.114	2	1	1	207.816	105.144	180.617
306.000	247.114	2	1	1	210.042	105.144	180.617
306.000	246.114	2	1	1	222.800	105.144	180.617
306.000	245.114	2	1	1	213.053	105.144	180.617
306.000	244.114	2	1	1	207.214	105.144	180.617
306.000	243.114	2	1	1	234.279	105.144	180.617
306.000	242.114	2	1	1	244.793	105.144	180.617
306.000	241.114	2	1	1	252.199	105.144	180.617
306.000	240.114	2	1	1	248.842	105.144	180.617
306.000	239.114	2	1	1	284.864	105.144	180.617
306.000	238.114	2	1	1	304.483	105.144	180.617
306.000	237.114	2	1	1	351.177	105.144	180.617
306.000	236.114	2	1	1	405.096	105.144	180.617
306.000	235.114	2	1	1	404.461	105.144	180.617
306.072	234.116	2	1	1	362.544	105.144	180.617
306.154	233.120	2	1	1	329.308	105.144	180.617
306.235	232.123	2	1	1	322.248	105.144	180.617
306.316	231.126	2	1	1	363.714	105.144	180.617
306.398	230.130	2	1	1	408.135	105.144	180.617
306.479	229.133	2	1	1	415.154	105.144	180.617
306.560	228.136	2	1	1	419.218	105.144	180.617
306.642	227.140	2	1	1	425.251	105.144	180.617
306.723	226.143	2	1	1	469.965	105.144	180.617
306.804	225.146	2	1	1	490.397	105.144	180.617
306.886	224.150	2	1	1	448.766	105.144	180.617
306.967	223.153	2	1	1	398.560	105.144	180.617
307.048	222.156	2	1	1	345.299	105.144	180.617
307.130	221.160	2	1	1	357.139	105.144	180.617
307.211	220.163	2	1	1	383.379	105.144	180.617
307.293	219.166	2	1	1	385.130	105.144	180.617
307.374	218.169	2	1	1	389.874	105.144	180.617
307.455	217.173	2	1	1	410.833	105.144	180.617
307.537	216.176	2	1	1	368.092	105.144	180.617
307.618	215.179	2	1	1	326.128	105.144	180.617
307.699	214.183	2	1	1	303.931	105.144	180.617
307.781	213.186	2	1	1	305.507	105.144	180.617
307.862	212.189	2	1	1	297.422	105.144	180.617
307.943	211.193	2	1	1	273.323	105.144	180.617
308.000	210.194	2	1	1	255.414	105.144	180.617
308.000	209.194	2	1	1	246.502	105.144	180.617
308.000	208.194	2	1	1	247.221	105.144	180.617
308.000	207.194	2	1	1	239.270	105.144	180.617
308.000	206.194	2	1	1	243.834	105.144	180.617
308.000	205.194	2	1	1	261.043	105.144	180.617
308.000	204.194	2	1	1	295.818	105.144	180.617
308.000	203.194	2	1	1	295.685	105.144	180.617
308.000	202.194	2	1	1	299.419	105.144	180.617
308.000	201.194	2	1	1	284.138	105.144	180.617
308.000	200.194	2	1	1	303.366	105.144	180.617
308.000	199.194	2	1	1	279.941	105.144	180.617
308.000	198.194	2	1	1	258.427	105.144	180.617
308.000	197.194	2	1	1	255.000	105.144	180.617
308.000	196.194	2	1	1	245.242	105.144	180.617
308.000	195.194	2	1	1	244.358	105.144	180.617
308.000	194.194	2	1	1	239.522	105.144	180.617
308.000	193.194	2	1	1	235.352	105.144	180.617
308.000	192.194	2	1	1	229.567	105.144	180.617
307.867	191.203	2	1	1	245.643	105.144	180.617
307.701	190.217	2	1	1	269.640	105.144	180.617
307.536	189.231	2	1	1	282.890	105.144	180.617
307.371	188.244	2	1	1	274.624	105.144	180.617
307.206	187.258	2	1	1	278.746	105.144	180.617
307.041	186.272	2	1	1	259.642	105.144	180.617
306.876	185.286	2	1	1	257.327	105.144	180.617
306.710	184.299	2	1	1	264.355	105.144	180.617
306.545	183.313	2	1	1	269.298	105.144	180.617
306.380	182.327	2	1	1	266.119	105.144	180.617
306.215	181.341	2	1	1	270.021	105.144	180.617
306.050	180.354	2	1	1	289.158	105.144	180.617
305.885	179.368	2	1	1	298.548	105.144	180.617
305.719	178.382	2	1	1	305.070	105.144	180.617
305.554	177.395	2	1	1	334.466	105.144	180.617
305.389	176.409	2	1	1	388.659	105.144	180.617
305.224	175.423	2	1	1	410.757	105.144	180.617
305.059	174.437	2	1	1	390.641	105.144	180.617
304.894	173.450	2	1	1	345.863	105.144	180.617
304.728	172.464	2	1	1	311.143	105.144	180.617
304.563	171.478	2	1	1	292.066	105.144	180.617
304.398	170.492	2	1	1	280.552	105.144	180.617
304.233	169.505	2	1	1	286.501	105.144	180.617
304.068	168.519	2	1	1	292.142	105.144	180.617
303.903	167.533	2	1	1	289.406	105.144	180.617
303.737	166.547	2	1	1	309.106	105.144	180.617
303.572	165.560	2	1	1	381.910	105.144	180.617
303.407	164.574	2	1	1	456.794	105.144	180.617
303.242	163.588	2	1	1	511.709	105.144	180.617
303.077	162.601	2	1	1	503.383	105.144	180.617
302.912	161.615	2	1	1	439.531	105.144	180.617
302.746	160.629	2	1	1	377.079	105.144	180.617
302.581	159.643	2	1	1	375.940	105.144	180.617
302.416	158.656	2	1	1	413.567	105.144	180.617
302.251	157.670	2	1	1	454.413	105.144	180.617
302.016	156.698	2	1	1	516.458	105.144	180.617
301.711	155.746	2	1	1	530.686	105.144	180.617
301.405	154.794	2	1	1	486.903	105.144	180.617
301.099	153.842	2	1	1	445.693	105.144	180.617
300.794	152.889	2	1	1	382.129	105.144	180.617
300.488	151.937	2	1	1	340.983	105.144	180.617
300.182	150.985	2	1	1	329.340	105.144	180.617
299.877	150.033	2	1	1	349.158	105.144	180.617
299.571	149.081	2	1	1	364.057	105.144	180.617
299.266	148.129	2	1	1	390.523	105.144	180.617
298.960	147.177	2	1	1	389.101	105.144	180.617
298.654	146.224	2	1	1	379.246	105.144	180.617
298.349	145.272	2	1	1	399.793	105.144	180.617
298.043	144.320	2	1	1	417.552	105.144	180.617
297.737	143.368	2	1	1	494.215	105.144	180.617
297.432	142.416	2	1	1	553.977	105.144	180.617
297.126	141.464	2	1	1	562.552	105.144	180.617
296.821	140.512	2	1	1	551.841	105.144	180.617
296.515	139.559	2	1	1	535.686	105.144	180.617
296.209	138.607	2	1	1	527.527	105.144	180.617
295.904	137.655	2	1	1	509.757	105.144	180.617
295.598	136.703	2	1	1	474.115	105.144	180.617
295.292	135.751	2	1	1	447.449	105.144	180.617
294.987	134.799	2	1	1	473.698	105.144	180.617
294.681	133.846	2	1	1	533.018	105.144	180.617
294.376	132.894	2	1	1	538.697	105.144	180.617
294.070	131.942	2	1	1	457.472	105.144	180.617
293.764	130.990	2	1	1	387.549	105.144	180.617
293.450	130.041	2	1	1	374.469	105.144	180.617
293.081	129.111	2	1	1	360.183	105.144	180.617
292.712	128.182	2	1	1	369.174	105.144	180.617
292.343	127.252	2	1	1	358.229	105.144	180.617
291.974	126.323	2	1	1	354.113	105.144	180.617
291.605	125.394	2	1	1	347.695	105.144	180.617
291.236	124.464	2	1	1	353.100	105.144	180.617
290.867	123.535	2	1	1	307.715	105.144	180.617
290.498	122.605	2	1	1	273.649	105.144	180.617
290.129	121.676	2	1	1	256.034	105.144	180.617
289.760	120.747	2	1	1	281.001	105.144	180.617
289.391	119.817	2	1	1	311.535	105.144	180.617
289.022	118.888	2	1	1	398.934	105.144	180.617
288.653	117.958	2	1	1	452.963	105.144	180.617
288.284	117.029	2	1	1	478.449	105.144	180.617
287.914	116.099	2	1	1	490.201	105.144	180.617
287.545	115.170	2	1	1	470.272	105.144	180.617
287.176	114.241	2	1	1	466.370	105.144	180.617
286.807	113.311	2	1	1	542.738	105.144	180.617
286.438	112.382	2	1	1	631.133	105.144	180.617
286.069	111.452	2	1	1	654.043	105.144	180.617
285.700	110.523	2	1	1	623.289	105.144	180.617
285.331	109.594	2	1	1	513.055	105.144	180.617
284.962	108.664	2	1	1	386.053	105.144	180.617
284.593	107.735	2	1	1	328.251	105.144	180.617
284.058	106.890	2	1	1	281.853	105.144	180.617
283.472	106.080	2	1	1	268.866	105.144	180.617
282.885	105.270	2	1	1	251.747	105.144	180.617
282.299	104.460	2	1	1	232.971	105.144	180.617
281.712	103.650	2	1	1	215.233	105.144	180.617
281.126	102.840	2	1	1	194.579	105.144	180.617
280.539	102.030	2	1	1	202.311	105.144	180.617
279.953	101.220	2	1	1	195.911	105.144	180.617
279.366	100.410	2	1	1	197.251	105.144	180.617
278.780	99.600	2	1	1	208.022	105.144	180.617
278.193	98.790	2	1	1	230.310	105.144	180.617
277.607	97.980	2	1	1	261.124	105.144	180.617
277.020	97.171	2	1	1	293.170	105.144	180.617
276.434	96.361	2	1	1	343.966	105.144	180.617
275.847	95.551	2	1	1	447.551	105.144	180.617
275.261	94.741	2	1	1	583.243	105.144	180.617
274.674	93.931	2	1	1	736.058	105.144	180.617
274.088	93.121	2	1	1	820.218	105.144	180.617
273.271	92.544	2	1	1	826.175	105.144	180.617
272.423	92.014	2	1	1	767.180	105.144	180.617
271.575	91.484	2	1	1	628.995	105.144	180.617
270.727	90.954	2	1	1	493.240	105.144	180.617
269.879	90.424	2	1	1	408.994	105.144	180.617
269.031	89.894	2	1	1	335.185	105.144	180.617
268.183	89.364	2	1	1	311.984	105.144	180.617
267.335	88.834	2	1	1	307.904	105.144	180.617
266.487	88.304	2	1	1	285.595	105.144	180.617
265.639	87.774	2	1	1	280.070	105.144	180.617
264.791	87.244	2	1	1	280.035	105.144	180.617
263.943	86.714	2	1	1	305.660	105.144	180.617
263.095	86.184	2	1	1	324.368	105.144	180.617
262.247	85.654	2	1	1	315.164	105.144	180.617
261.322	85.272	2	1	1	261.171	105.144	180.617
260.375	84.953	2	1	1	230.780	105.144	180.617
259.427	84.634	2	1	1	215.677	105.144	180.617
258.479	84.315	2	1	1	231.924	105.144	180.617
257.531	83.997	2	1	1	264.310	105.144	180.617
256.583	83.678	2	1	1	290.794	105.144	180.617
255.636	83.359	2	1	1	313.657	105.144	180.617
254.688	83.040	2	1	1	340.498	105.144	180.617
253.740	82.721	2	1	1	359.309	105.144	180.617
252.792	82.402	2	1	1	374.394	105.144	180.617
251.845	82.083	2	1	1	352.625	105.144	180.617
250.897	81.764	2	1	1	311.124	105.144	180.617
249.949	81.445	2	1	1	279.275	105.144	180.617
249.001	81.127	2	1	1	293.817	105.144	180.617
248.053	80.808	2	1	1	332.075	105.144	180.617
247.106	80.489	2	1	1	356.220	105.144	180.617
246.158	80.170	2	1	1	337.787	105.144	180.617
245.210	79.851	2	1	1	315.625	105.144	180.617
244.262	79.532	2	1	1	347.216	105.144	180.617
243.289	79.303	2	1	1	387.711	105.144	180.617
242.313	79.083	2	1	1	404.422	105.144	180.617
241.338	78.863	2	1	1	389.078	105.144	180.617
240.362	78.644	2	1	1	336.102	105.144	180.617
239.386	78.424	2	1	1	271.101	105.144	180.617
238.411	78.205	2	1	1	237.534	105.144	180.617
237.435	77.985	2	1	1	219.992	105.144	180.617
236.460	77.766	2	1	1	216.105	105.144	180.617
235.484	77.546	2	1	1	212.800	105.144	180.617
234.508	77.327	2	1	1	202.996	105.144	180.617
233.533	77.107	2	1	1	206.120	105.144	180.617
232.557	76.888	2	1	1	197.411	105.144	180.617
231.582	76.668	2	1	1	196.258	105.144	180.617
230.586	76.578	2	1	1	200.397	105.144	180.617
229.631	76.876	2	1	1	202.412	105.144	180.617
228.677	77.175	2	1	1	221.188	105.144	180.617
227.723	77.474	2	1	1	247.352	105.144	180.617
226.768	77.773	2	1	1	288.203	105.144	180.617
225.814	78.071	2	1	1	319.870	105.144	180.617
224.860	78.370	2	1	1	355.715	105.144	180.617
223.905	78.669	2	1	1	391.149	105.144	180.617
222.951	78.967	2	1	1	473.302	105.144	180.617
221.997	79.266	2	1	1	557.660	105.144	180.617
221.023	79.493	2	1	1	541.612	105.144	180.617
220.023	79.462	2	1	1	440.353	105.144	180.617
219.024	79.430	2	1	1	333.896	105.144	180.617
218.024	79.399	2	1	1	279.817	105.144	180.617
217.025	79.368	2	1	1	241.253	105.144	180.617
216.025	79.337	2	1	1	248.734	105.144	180.617
215.026	79.305	2	1	1	238.410	105.144	180.617
214.026	79.274	2	1	1	249.214	105.144	180.617
213.039	79.113	2	1	1	257.646	105.144	180.617
212.202	78.566	2	1	1	264.572	105.144	180.617
211.364	78.020	2	1	1	307.796	105.144	180.617
210.527	77.474	2	1	1	338.421	105.144	180.617
209.689	76.928	2	1	1	311.791	105.144	180.617
208.851	76.381	2	1	1	276.747	105.144	180.617
208.014	75.835	2	1	1	227.494	105.144	180.617
207.083	75.469	2	1	1	215.670	105.144	180.617
206.086	75.394	2	1	1	202.969	105.144	180.617
205.089	75.319	2	1	1	188.412	105.144	180.617
204.092	75.244	2	1	1	176.350	105.144	180.617
203.094	75.170	2	1	1	181.275	105.144	180.617
202.097	75.095	2	1	1	182.682	105.144	180.617
201.100	75.020	2	1	1	169.405	105.144	180.617
200.103	74.945	2	1	1	175.127	105.144	180.617
199.106	74.870	2	1	1	177.837	105.144	180.617
198.108	74.796	2	1	1	169.395	105.144	180.617
197.111	74.721	2	1	1	166.384	105.144	180.617
196.114	74.646	2	1	1	200.349	105.144	180.617
195.117	74.571	2	1	1	220.363	105.144	180.617
194.120	74.496	2	1	1	298.214	105.144	180.617
193.122	74.422	2	1	1	359.094	105.144	180.617
192.125	74.347	2	1	1	397.685	105.144	180.617
191.128	74.272	2	1	1	418.411	105.144	180.617
190.131	74.197	2	1	1	369.417	105.144	180.617
189.134	74.123	2	1	1	360.688	105.144	180.617
188.136	74.048	2	1	1	362.183	105.144	180.617
187.137	74.025	2	1	1	314.915	105.144	180.617
186.139	74.095	2	1	1	291.062	105.144	180.617
185.141	74.165	2	1	1	267.980	105.144	180.617
184.144	74.234	2	1	1	233.590	105.144	180.617
183.146	74.304	2	1	1	213.552	105.144	180.617
182.149	74.373	2	1	1	205.794	105.144	180.617
181.151	74.443	2	1	1	200.533	105.144	180.617
180.154	74.513	2	1	1	215.597	105.144	180.617
179.156	74.582	2	1	1	221.295	105.144	180.617
178.158	74.652	2	1	1	211.185	105.144	180.617
177.161	74.721	2	1	1	212.683	105.144	180.617
176.163	74.791	2	1	1	190.411	105.144	180.617
175.166	74.861	2	1	1	183.235	105.144	180.617
174.168	74.930	2	1	1	175.063	105.144	180.617
173.171	75.000	2	1	1	167.849	105.144	180.617
172.173	75.069	2	1	1	159.236	105.144	180.617
171.175	75.139	2	1	1	162.681	105.144	180.617
170.178	75.209	2	1	1	167.208	105.144	180.617
169.180	75.278	2	1	1	175.732	105.144	180.617
168.183	75.348	2	1	1	189.513	105.144	180.617
167.185	75.417	2	1	1	205.685	105.144	180.617
166.188	75.487	2	1	1	220.884	105.144	180.617
165.282	75.912	2	1	1	226.594	105.144	180.617
164.415	76.410	2	1	1	242.150	105.144	180.617
163.548	76.908	2	1	1	234.864	105.144	180.617
162.681	77.406	2	1	1	249.488	105.144	180.617
161.814	77.904	2	1	1	307.007	105.144	180.617
160.947	78.402	2	1	1	403.406	105.144	180.617
160.079	78.900	2	1	1	476.514	105.144	180.617
159.212	79.398	2	1	1	475.639	105.144	180.617
158.345	79.896	2	1	1	412.967	105.144	180.617
157.478	80.394	2	1	1	352.124	105.144	180.617
156.611	80.892	2	1	1	332.036	105.144	180.617
155.743	81.390	2	1	1	308.752	105.144	180.617
154.876	81.888	2	1	1	307.200	105.144	180.617
154.009	82.386	2	1	1	309.336	105.144	180.617
153.142	82.884	2	1	1	314.824	105.144	180.617
152.275	83.382	2	1	1	297.724	105.144	180.617
151.407	83.880	2	1	1	283.685	105.144	180.617
150.540	84.378	2	1	1	269.229	105.144	180.617
149.673	84.876	2	1	1	261.210	105.144	180.617
148.847	85.440	2	1	1	244.654	105.144	180.617
148.088	86.090	2	1	1	222.519	105.144	180.617
147.328	86.740	2	1	1	216.447	105.144	180.617
146.568	87.391	2	1	1	196.674	105.144	180.617
145.809	88.041	2	1	1	194.576	105.144	180.617
145.049	88.691	2	1	1	203.341	105.144	180.617
144.289	89.341	2	1	1	234.575	105.144	180.617
143.529	89.992	2	1	1	247.917	105.144	180.617
142.770	90.642	2	1	1	244.110	105.144	180.617
142.010	91.292	2	1	1	247.376	105.144	180.617
141.250	91.943	2	1	1	234.150	105.144	180.617
140.491	92.593	2	1	1	225.009	105.144	180.617
139.731	93.243	2	1	1	215.925	105.144	180.617
138.971	93.893	2	1	1	212.094	105.144	180.617
138.211	94.544	2	1	1	246.753	105.144	180.617
137.452	95.194	2	1	1	263.389	105.144	180.617
136.692	95.844	2	1	1	274.508	105.144	180.617
135.932	96.494	2	1	1	295.584	105.144	180.617
135.173	97.145	2	1	1	323.342	105.144	180.617
134.413	97.795	2	1	1	331.278	105.144	180.617
133.653	98.445	2	1	1	356.482	105.144	180.617
132.893	99.095	2	1	1	350.311	105.144	180.617
132.134	99.746	2	1	1	333.941	105.144	180.617
131.374	100.396	2	1	1	317.178	105.144	180.617
130.614	101.046	2	1	1	291.418	105.144	180.617
129.855	101.696	2	1	1	255.819	105.144	180.617
129.171	102.426	2	1	1	246.471	105.144	180.617
128.560	103.218	2	1	1	250.965	105.144	180.617
127.949	104.010	2	1	1	262.986	105.144	180.617
127.338	104.801	2	1	1	298.173	105.144	180.617
126.727	105.593	2	1	1	361.444	105.144	180.617
126.116	106.385	2	1	1	445.007	105.144	180.617
125.506	107.176	2	1	1	483.956	105.144	180.617
124.895	107.968	2	1	1	498.827	105.144	180.617
124.284	108.760	2	1	1	495.490	105.144	180.617
123.673	109.552	2	1	1	447.275	105.144	180.617
123.062	110.343	2	1	1	376.386	105.144	180.617
122.451	111.135	2	1	1	316.290	105.144	180.617
121.840	111.927	2	1	1	292.185	105.144	180.617
121.229	112.718	2	1	1	290.832	105.144	180.617
120.618	113.510	2	1	1	262.341	105.144	180.617
120.007	114.302	2	1	1	251.569	105.144	180.617
119.396	115.093	2	1	1	256.924	105.144	180.617
118.785	115.885	2	1	1	254.930	105.144	180.617
118.175	116.677	2	1	1	248.510	105.144	180.617
117.564	117.469	2	1	1	267.955	105.144	180.617
116.953	118.260	2	1	1	342.431	105.144	180.617
116.342	119.052	2	1	1	452.522	105.144	180.617
115.731	119.844	2	1	1	609.576	105.144	180.617
115.120	120.635	2	1	1	697.931	105.144	180.617
114.509	121.427	2	1	1	684.408	105.144	180.617
113.898	122.219	2	1	1	598.738	105.144	180.617
113.287	123.010	2	1	1	499.132	105.144	180.617
112.631	123.765	2	1	1	494.734	105.144	180.617
111.963	124.509	2	1	1	494.767	105.144	180.617
111.295	125.254	2	1	1	485.776	105.144	180.617
110.628	125.998	2	1	1	480.821	105.144	180.617
109.960	126.743	2	1	1	528.220	105.144	180.617
109.293	127.487	2	1	1	624.273	105.144	180.617
108.625	128.232	2	1	1	740.139	105.144	180.617
107.958	128.977	2	1	1	853.357	105.144	180.617
107.290	129.721	2	1	1	834.772	105.144	180.617
106.623	130.466	2	1	1	726.515	105.144	180.617
105.955	131.210	2	1	1	589.547	105.144	180.617
105.288	131.955	2	1	1	450.498	105.144	180.617
104.620	132.699	2	1	1	367.109	105.144	180.617
