X	Y	C	Z	T	Intensity	BG	MX
135.750	111.500	1	1	1	1008.718	112.974	275.279
134.850	111.937	1	1	1	967.520	112.974	275.279
133.951	112.374	1	1	1	942.582	112.974	275.279
133.051	112.811	1	1	1	950.128	112.974	275.279
132.152	113.248	1	1	1	938.125	112.974	275.279
131.252	113.685	1	1	1	958.233	112.974	275.279
130.353	114.121	1	1	1	958.491	112.974	275.279
129.453	114.558	1	1	1	1004.111	112.974	275.279
128.554	114.995	1	1	1	1032.095	112.974	275.279
127.654	115.432	1	1	1	1072.210	112.974	275.279
126.801	115.953	1	1	1	1068.217	112.974	275.279
126.100	116.667	1	1	1	1089.231	112.974	275.279
125.400	117.380	1	1	1	1073.212	112.974	275.279
124.699	118.094	1	1	1	1089.831	112.974	275.279
123.999	118.808	1	1	1	1042.146	112.974	275.279
123.298	119.521	1	1	1	1036.535	112.974	275.279
122.598	120.235	1	1	1	965.908	112.974	275.279
121.897	120.949	1	1	1	897.198	112.974	275.279
121.197	121.662	1	1	1	884.459	112.974	275.279
120.497	122.376	1	1	1	864.958	112.974	275.279
119.796	123.090	1	1	1	861.239	112.974	275.279
119.096	123.804	1	1	1	860.831	112.974	275.279
118.395	124.517	1	1	1	873.645	112.974	275.279
117.695	125.231	1	1	1	906.038	112.974	275.279
116.994	125.945	1	1	1	950.972	112.974	275.279
116.294	126.658	1	1	1	1033.262	112.974	275.279
115.593	127.372	1	1	1	1072.877	112.974	275.279
114.893	128.086	1	1	1	1103.018	112.974	275.279
114.192	128.799	1	1	1	1115.144	112.974	275.279
113.548	129.564	1	1	1	1141.225	112.974	275.279
113.008	130.406	1	1	1	1156.963	112.974	275.279
112.468	131.248	1	1	1	1118.086	112.974	275.279
111.928	132.089	1	1	1	1084.932	112.974	275.279
111.388	132.931	1	1	1	1063.977	112.974	275.279
110.848	133.773	1	1	1	1026.329	112.974	275.279
110.308	134.614	1	1	1	1080.093	112.974	275.279
109.768	135.456	1	1	1	1110.687	112.974	275.279
109.228	136.298	1	1	1	1075.045	112.974	275.279
108.688	137.139	1	1	1	1087.315	112.974	275.279
108.148	137.981	1	1	1	1089.012	112.974	275.279
107.608	138.822	1	1	1	1082.481	112.974	275.279
107.068	139.664	1	1	1	1094.328	112.974	275.279
106.528	140.506	1	1	1	1063.795	112.974	275.279
105.988	141.347	1	1	1	1044.931	112.974	275.279
105.448	142.189	1	1	1	1075.883	112.974	275.279
104.908	143.031	1	1	1	1104.565	112.974	275.279
104.381	143.880	1	1	1	1073.952	112.974	275.279
103.893	144.753	1	1	1	1071.452	112.974	275.279
103.406	145.627	1	1	1	1096.665	112.974	275.279
102.918	146.500	1	1	1	1102.609	112.974	275.279
102.430	147.373	1	1	1	1053.413	112.974	275.279
101.943	148.246	1	1	1	1060.480	112.974	275.279
101.455	149.119	1	1	1	1028.204	112.974	275.279
100.968	149.992	1	1	1	1022.270	112.974	275.279
100.480	150.865	1	1	1	1004.339	112.974	275.279
99.993	151.738	1	1	1	985.541	112.974	275.279
99.505	152.611	1	1	1	984.385	112.974	275.279
99.017	153.484	1	1	1	987.656	112.974	275.279
98.530	154.357	1	1	1	967.648	112.974	275.279
98.042	155.230	1	1	1	1006.481	112.974	275.279
97.555	156.104	1	1	1	985.671	112.974	275.279
97.087	156.987	1	1	1	1005.478	112.974	275.279
96.635	157.879	1	1	1	1003.565	112.974	275.279
96.183	158.771	1	1	1	996.468	112.974	275.279
95.731	159.664	1	1	1	1076.139	112.974	275.279
95.279	160.556	1	1	1	1176.427	112.974	275.279
94.827	161.448	1	1	1	1248.880	112.974	275.279
94.376	162.340	1	1	1	1250.243	112.974	275.279
93.924	163.232	1	1	1	1247.793	112.974	275.279
93.472	164.124	1	1	1	1186.284	112.974	275.279
93.020	165.016	1	1	1	1094.797	112.974	275.279
92.568	165.908	1	1	1	1072.235	112.974	275.279
92.116	166.800	1	1	1	1055.498	112.974	275.279
91.664	167.692	1	1	1	1058.526	112.974	275.279
91.213	168.585	1	1	1	1063.002	112.974	275.279
90.792	169.492	1	1	1	1079.967	112.974	275.279
90.537	170.459	1	1	1	1037.168	112.974	275.279
90.282	171.426	1	1	1	1010.408	112.974	275.279
90.027	172.393	1	1	1	1029.465	112.974	275.279
89.772	173.360	1	1	1	1009.904	112.974	275.279
89.518	174.327	1	1	1	1047.129	112.974	275.279
89.263	175.294	1	1	1	1067.502	112.974	275.279
89.008	176.260	1	1	1	1077.489	112.974	275.279
88.753	177.227	1	1	1	1105.772	112.974	275.279
88.498	178.194	1	1	1	1084.742	112.974	275.279
88.243	179.161	1	1	1	1087.733	112.974	275.279
87.989	180.128	1	1	1	1096.439	112.974	275.279
87.734	181.095	1	1	1	1142.331	112.974	275.279
87.479	182.062	1	1	1	1220.570	112.974	275.279
87.224	183.029	1	1	1	1194.677	112.974	275.279
86.969	183.996	1	1	1	1223.308	112.974	275.279
86.715	184.963	1	1	1	1252.180	112.974	275.279
86.460	185.930	1	1	1	1286.073	112.974	275.279
86.205	186.897	1	1	1	1286.019	112.974	275.279
85.950	187.864	1	1	1	1289.939	112.974	275.279
85.695	188.831	1	1	1	1339.495	112.974	275.279
85.441	189.798	1	1	1	1361.006	112.974	275.279
85.186	190.765	1	1	1	1422.918	112.974	275.279
84.931	191.732	1	1	1	1547.365	112.974	275.279
84.676	192.699	1	1	1	1606.491	112.974	275.279
84.421	193.666	1	1	1	1569.122	112.974	275.279
84.372	194.665	1	1	1	1456.943	112.974	275.279
84.430	195.663	1	1	1	1405.799	112.974	275.279
84.488	196.662	1	1	1	1337.207	112.974	275.279
84.546	197.660	1	1	1	1298.496	112.974	275.279
84.603	198.658	1	1	1	1276.540	112.974	275.279
84.661	199.657	1	1	1	1246.542	112.974	275.279
84.719	200.655	1	1	1	1193.340	112.974	275.279
84.777	201.653	1	1	1	1186.861	112.974	275.279
84.835	202.652	1	1	1	1149.461	112.974	275.279
84.893	203.650	1	1	1	1150.767	112.974	275.279
84.951	204.648	1	1	1	1182.401	112.974	275.279
85.028	205.645	1	1	1	1156.627	112.974	275.279
85.220	206.627	1	1	1	1115.704	112.974	275.279
85.412	207.608	1	1	1	1116.626	112.974	275.279
85.604	208.589	1	1	1	1089.562	112.974	275.279
85.796	209.571	1	1	1	1071.056	112.974	275.279
85.988	210.552	1	1	1	1067.957	112.974	275.279
86.180	211.534	1	1	1	1068.352	112.974	275.279
86.373	212.515	1	1	1	1055.316	112.974	275.279
86.565	213.496	1	1	1	1094.876	112.974	275.279
86.757	214.478	1	1	1	1080.540	112.974	275.279
86.949	215.459	1	1	1	1064.512	112.974	275.279
87.141	216.441	1	1	1	1092.962	112.974	275.279
87.344	217.420	1	1	1	1082.709	112.974	275.279
87.563	218.395	1	1	1	1065.687	112.974	275.279
87.782	219.371	1	1	1	1065.612	112.974	275.279
88.001	220.347	1	1	1	1028.323	112.974	275.279
88.220	221.323	1	1	1	993.214	112.974	275.279
88.439	222.298	1	1	1	981.834	112.974	275.279
88.658	223.274	1	1	1	939.882	112.974	275.279
88.877	224.250	1	1	1	926.846	112.974	275.279
89.097	225.225	1	1	1	920.852	112.974	275.279
89.316	226.201	1	1	1	932.001	112.974	275.279
89.535	227.177	1	1	1	935.784	112.974	275.279
89.754	228.153	1	1	1	914.155	112.974	275.279
89.973	229.128	1	1	1	910.248	112.974	275.279
90.283	230.079	1	1	1	917.963	112.974	275.279
90.605	231.026	1	1	1	909.220	112.974	275.279
90.928	231.972	1	1	1	898.908	112.974	275.279
91.251	232.919	1	1	1	966.050	112.974	275.279
91.573	233.865	1	1	1	1052.931	112.974	275.279
91.896	234.812	1	1	1	1109.457	112.974	275.279
92.219	235.758	1	1	1	1104.440	112.974	275.279
92.541	236.705	1	1	1	1109.153	112.974	275.279
92.864	237.651	1	1	1	1102.863	112.974	275.279
93.187	238.598	1	1	1	1108.815	112.974	275.279
93.509	239.544	1	1	1	1133.510	112.974	275.279
93.829	240.492	1	1	1	1185.968	112.974	275.279
94.141	241.442	1	1	1	1221.863	112.974	275.279
94.453	242.392	1	1	1	1179.057	112.974	275.279
94.766	243.342	1	1	1	1194.820	112.974	275.279
95.078	244.292	1	1	1	1158.550	112.974	275.279
95.390	245.242	1	1	1	1211.075	112.974	275.279
95.702	246.192	1	1	1	1325.186	112.974	275.279
96.014	247.142	1	1	1	1367.642	112.974	275.279
96.326	248.092	1	1	1	1386.861	112.974	275.279
96.638	249.042	1	1	1	1393.082	112.974	275.279
96.950	249.992	1	1	1	1395.045	112.974	275.279
97.262	250.942	1	1	1	1416.573	112.974	275.279
97.622	251.875	1	1	1	1432.742	112.974	275.279
98.128	252.738	1	1	1	1397.516	112.974	275.279
98.634	253.600	1	1	1	1316.619	112.974	275.279
99.140	254.463	1	1	1	1325.568	112.974	275.279
99.646	255.326	1	1	1	1347.027	112.974	275.279
100.152	256.188	1	1	1	1397.433	112.974	275.279
100.658	257.051	1	1	1	1475.792	112.974	275.279
101.163	257.913	1	1	1	1498.383	112.974	275.279
101.669	258.776	1	1	1	1448.929	112.974	275.279
102.175	259.638	1	1	1	1316.120	112.974	275.279
102.681	260.501	1	1	1	1216.133	112.974	275.279
103.187	261.364	1	1	1	1104.272	112.974	275.279
103.693	262.226	1	1	1	1083.340	112.974	275.279
104.230	263.070	1	1	1	1059.781	112.974	275.279
104.815	263.881	1	1	1	1092.353	112.974	275.279
105.400	264.692	1	1	1	1114.138	112.974	275.279
105.985	265.503	1	1	1	1139.911	112.974	275.279
106.570	266.314	1	1	1	1143.883	112.974	275.279
107.154	267.125	1	1	1	1123.124	112.974	275.279
107.739	267.937	1	1	1	1099.613	112.974	275.279
108.324	268.748	1	1	1	1149.739	112.974	275.279
108.909	269.559	1	1	1	1197.670	112.974	275.279
109.494	270.370	1	1	1	1275.347	112.974	275.279
110.078	271.181	1	1	1	1321.559	112.974	275.279
110.663	271.992	1	1	1	1307.435	112.974	275.279
111.248	272.804	1	1	1	1274.252	112.974	275.279
111.839	273.611	1	1	1	1272.555	112.974	275.279
112.463	274.392	1	1	1	1197.089	112.974	275.279
113.088	275.172	1	1	1	1150.993	112.974	275.279
113.713	275.953	1	1	1	1111.815	112.974	275.279
114.337	276.734	1	1	1	1091.670	112.974	275.279
114.962	277.515	1	1	1	1039.169	112.974	275.279
115.587	278.296	1	1	1	1000.961	112.974	275.279
116.211	279.077	1	1	1	1053.026	112.974	275.279
116.836	279.858	1	1	1	1093.882	112.974	275.279
117.461	280.638	1	1	1	1231.844	112.974	275.279
118.085	281.419	1	1	1	1357.824	112.974	275.279
118.710	282.200	1	1	1	1397.770	112.974	275.279
119.379	282.944	1	1	1	1443.881	112.974	275.279
120.051	283.684	1	1	1	1319.066	112.974	275.279
120.723	284.425	1	1	1	1201.311	112.974	275.279
121.395	285.166	1	1	1	1088.854	112.974	275.279
122.066	285.906	1	1	1	1041.496	112.974	275.279
122.738	286.647	1	1	1	1016.194	112.974	275.279
123.410	287.388	1	1	1	976.151	112.974	275.279
124.082	288.129	1	1	1	982.599	112.974	275.279
124.754	288.869	1	1	1	1024.048	112.974	275.279
125.425	289.610	1	1	1	999.654	112.974	275.279
126.097	290.351	1	1	1	1008.373	112.974	275.279
126.769	291.091	1	1	1	959.860	112.974	275.279
127.441	291.832	1	1	1	982.954	112.974	275.279
128.113	292.573	1	1	1	990.077	112.974	275.279
128.820	293.279	1	1	1	1030.452	112.974	275.279
129.574	293.937	1	1	1	1098.116	112.974	275.279
130.327	294.594	1	1	1	1203.850	112.974	275.279
131.081	295.252	1	1	1	1235.279	112.974	275.279
131.835	295.909	1	1	1	1211.946	112.974	275.279
132.588	296.566	1	1	1	1180.614	112.974	275.279
133.342	297.224	1	1	1	1150.323	112.974	275.279
134.095	297.881	1	1	1	1072.621	112.974	275.279
134.849	298.538	1	1	1	1079.121	112.974	275.279
135.602	299.196	1	1	1	1073.894	112.974	275.279
136.356	299.853	1	1	1	998.831	112.974	275.279
137.110	300.511	1	1	1	988.258	112.974	275.279
137.863	301.168	1	1	1	953.766	112.974	275.279
138.617	301.825	1	1	1	882.927	112.974	275.279
139.370	302.483	1	1	1	907.992	112.974	275.279
140.124	303.140	1	1	1	946.700	112.974	275.279
140.954	303.698	1	1	1	991.294	112.974	275.279
141.797	304.235	1	1	1	977.622	112.974	275.279
142.641	304.772	1	1	1	976.158	112.974	275.279
143.485	305.309	1	1	1	934.383	112.974	275.279
144.328	305.845	1	1	1	862.409	112.974	275.279
145.172	306.382	1	1	1	804.708	112.974	275.279
146.016	306.919	1	1	1	792.766	112.974	275.279
146.859	307.456	1	1	1	789.429	112.974	275.279
147.703	307.993	1	1	1	771.855	112.974	275.279
148.547	308.530	1	1	1	832.463	112.974	275.279
149.390	309.067	1	1	1	840.724	112.974	275.279
150.234	309.604	1	1	1	860.095	112.974	275.279
151.078	310.140	1	1	1	911.010	112.974	275.279
152.029	310.448	1	1	1	894.612	112.974	275.279
152.999	310.694	1	1	1	962.615	112.974	275.279
153.968	310.940	1	1	1	907.622	112.974	275.279
154.937	311.186	1	1	1	848.637	112.974	275.279
155.906	311.431	1	1	1	828.158	112.974	275.279
156.876	311.677	1	1	1	860.697	112.974	275.279
157.845	311.923	1	1	1	835.790	112.974	275.279
158.814	312.169	1	1	1	822.064	112.974	275.279
159.784	312.415	1	1	1	831.876	112.974	275.279
160.753	312.661	1	1	1	840.557	112.974	275.279
161.722	312.907	1	1	1	853.233	112.974	275.279
162.691	313.153	1	1	1	843.997	112.974	275.279
163.661	313.399	1	1	1	857.125	112.974	275.279
164.630	313.645	1	1	1	826.645	112.974	275.279
165.599	313.891	1	1	1	840.959	112.974	275.279
166.569	314.137	1	1	1	823.030	112.974	275.279
167.538	314.383	1	1	1	839.936	112.974	275.279
168.516	314.589	1	1	1	823.019	112.974	275.279
169.502	314.760	1	1	1	818.250	112.974	275.279
170.487	314.930	1	1	1	807.819	112.974	275.279
171.472	315.101	1	1	1	824.377	112.974	275.279
172.458	315.272	1	1	1	818.656	112.974	275.279
173.443	315.442	1	1	1	793.300	112.974	275.279
174.428	315.613	1	1	1	755.674	112.974	275.279
175.414	315.783	1	1	1	729.771	112.974	275.279
176.399	315.954	1	1	1	716.441	112.974	275.279
177.384	316.124	1	1	1	724.976	112.974	275.279
178.370	316.295	1	1	1	727.001	112.974	275.279
179.355	316.465	1	1	1	745.861	112.974	275.279
180.341	316.636	1	1	1	786.034	112.974	275.279
181.325	316.809	1	1	1	817.715	112.974	275.279
182.309	316.988	1	1	1	830.883	112.974	275.279
183.293	317.167	1	1	1	860.921	112.974	275.279
184.277	317.346	1	1	1	847.081	112.974	275.279
185.261	317.525	1	1	1	833.744	112.974	275.279
186.245	317.704	1	1	1	883.264	112.974	275.279
187.229	317.882	1	1	1	888.791	112.974	275.279
188.212	318.061	1	1	1	879.139	112.974	275.279
189.196	318.240	1	1	1	891.530	112.974	275.279
190.180	318.419	1	1	1	885.900	112.974	275.279
191.164	318.598	1	1	1	909.009	112.974	275.279
192.148	318.777	1	1	1	971.849	112.974	275.279
193.132	318.956	1	1	1	986.413	112.974	275.279
194.116	319.135	1	1	1	1045.408	112.974	275.279
195.106	319.275	1	1	1	1117.212	112.974	275.279
196.103	319.345	1	1	1	1228.255	112.974	275.279
197.101	319.415	1	1	1	1243.034	112.974	275.279
198.098	319.485	1	1	1	1290.354	112.974	275.279
199.096	319.555	1	1	1	1258.026	112.974	275.279
200.094	319.625	1	1	1	1287.069	112.974	275.279
201.091	319.695	1	1	1	1294.614	112.974	275.279
202.089	319.765	1	1	1	1287.606	112.974	275.279
203.086	319.835	1	1	1	1362.346	112.974	275.279
204.084	319.905	1	1	1	1300.991	112.974	275.279
205.081	319.975	1	1	1	1237.373	112.974	275.279
206.079	320.045	1	1	1	1175.095	112.974	275.279
207.076	320.115	1	1	1	1166.644	112.974	275.279
208.074	320.185	1	1	1	1124.511	112.974	275.279
209.073	320.233	1	1	1	1170.129	112.974	275.279
210.046	320.003	1	1	1	1115.952	112.974	275.279
211.019	319.773	1	1	1	1064.948	112.974	275.279
211.992	319.543	1	1	1	1040.854	112.974	275.279
212.965	319.312	1	1	1	999.731	112.974	275.279
213.939	319.082	1	1	1	982.700	112.974	275.279
214.912	318.852	1	1	1	958.143	112.974	275.279
215.885	318.622	1	1	1	956.924	112.974	275.279
216.858	318.392	1	1	1	986.560	112.974	275.279
217.831	318.162	1	1	1	893.363	112.974	275.279
218.804	317.932	1	1	1	925.287	112.974	275.279
219.778	317.702	1	1	1	930.146	112.974	275.279
220.751	317.472	1	1	1	929.308	112.974	275.279
221.724	317.242	1	1	1	907.885	112.974	275.279
222.697	317.012	1	1	1	896.639	112.974	275.279
223.670	316.781	1	1	1	888.566	112.974	275.279
224.643	316.551	1	1	1	854.995	112.974	275.279
225.617	316.321	1	1	1	856.376	112.974	275.279
226.590	316.091	1	1	1	811.584	112.974	275.279
227.563	315.861	1	1	1	819.007	112.974	275.279
228.536	315.631	1	1	1	819.965	112.974	275.279
229.509	315.401	1	1	1	850.533	112.974	275.279
230.483	315.171	1	1	1	870.647	112.974	275.279
231.430	314.850	1	1	1	876.690	112.974	275.279
232.376	314.528	1	1	1	899.258	112.974	275.279
233.323	314.206	1	1	1	875.589	112.974	275.279
234.270	313.883	1	1	1	881.816	112.974	275.279
235.216	313.561	1	1	1	839.509	112.974	275.279
236.163	313.239	1	1	1	881.255	112.974	275.279
237.110	312.917	1	1	1	847.290	112.974	275.279
238.056	312.594	1	1	1	843.839	112.974	275.279
239.003	312.272	1	1	1	856.168	112.974	275.279
239.950	311.950	1	1	1	815.558	112.974	275.279
240.896	311.628	1	1	1	857.920	112.974	275.279
241.843	311.305	1	1	1	880.699	112.974	275.279
242.790	310.983	1	1	1	943.470	112.974	275.279
243.736	310.661	1	1	1	998.560	112.974	275.279
244.683	310.338	1	1	1	1009.012	112.974	275.279
245.629	310.016	1	1	1	1004.059	112.974	275.279
246.565	309.663	1	1	1	951.957	112.974	275.279
247.484	309.269	1	1	1	875.006	112.974	275.279
248.403	308.875	1	1	1	834.534	112.974	275.279
249.322	308.481	1	1	1	883.607	112.974	275.279
250.241	308.087	1	1	1	867.336	112.974	275.279
251.161	307.693	1	1	1	843.718	112.974	275.279
252.080	307.299	1	1	1	836.300	112.974	275.279
252.999	306.905	1	1	1	875.576	112.974	275.279
253.918	306.511	1	1	1	881.586	112.974	275.279
254.837	306.117	1	1	1	934.056	112.974	275.279
255.740	305.687	1	1	1	987.926	112.974	275.279
256.594	305.167	1	1	1	1016.746	112.974	275.279
257.448	304.646	1	1	1	1020.978	112.974	275.279
258.302	304.126	1	1	1	1003.301	112.974	275.279
259.155	303.605	1	1	1	1017.714	112.974	275.279
260.009	303.085	1	1	1	1036.539	112.974	275.279
260.863	302.564	1	1	1	1075.866	112.974	275.279
261.717	302.044	1	1	1	1080.590	112.974	275.279
262.571	301.523	1	1	1	1078.431	112.974	275.279
263.425	301.003	1	1	1	1082.670	112.974	275.279
264.280	300.484	1	1	1	1123.060	112.974	275.279
265.157	300.004	1	1	1	1133.044	112.974	275.279
266.034	299.524	1	1	1	1117.883	112.974	275.279
266.912	299.045	1	1	1	1057.929	112.974	275.279
267.789	298.565	1	1	1	1031.562	112.974	275.279
268.667	298.085	1	1	1	1045.730	112.974	275.279
269.544	297.605	1	1	1	1033.442	112.974	275.279
270.421	297.126	1	1	1	1084.344	112.974	275.279
271.299	296.646	1	1	1	1127.829	112.974	275.279
272.176	296.166	1	1	1	1090.740	112.974	275.279
273.054	295.686	1	1	1	1047.627	112.974	275.279
273.931	295.207	1	1	1	1054.587	112.974	275.279
274.809	294.727	1	1	1	1032.961	112.974	275.279
275.686	294.247	1	1	1	1007.332	112.974	275.279
276.473	293.630	1	1	1	983.625	112.974	275.279
277.238	292.987	1	1	1	982.910	112.974	275.279
278.004	292.343	1	1	1	997.129	112.974	275.279
278.770	291.700	1	1	1	951.545	112.974	275.279
279.535	291.057	1	1	1	984.889	112.974	275.279
280.301	290.414	1	1	1	943.882	112.974	275.279
281.067	289.771	1	1	1	966.567	112.974	275.279
281.832	289.127	1	1	1	953.862	112.974	275.279
282.598	288.484	1	1	1	962.647	112.974	275.279
283.364	287.841	1	1	1	922.122	112.974	275.279
284.130	287.198	1	1	1	915.637	112.974	275.279
284.825	286.479	1	1	1	947.337	112.974	275.279
285.517	285.758	1	1	1	954.819	112.974	275.279
286.209	285.036	1	1	1	997.505	112.974	275.279
286.901	284.314	1	1	1	1049.708	112.974	275.279
287.593	283.592	1	1	1	1103.505	112.974	275.279
288.285	282.870	1	1	1	1124.374	112.974	275.279
288.977	282.148	1	1	1	1132.198	112.974	275.279
289.669	281.426	1	1	1	1140.264	112.974	275.279
290.360	280.704	1	1	1	1097.088	112.974	275.279
291.052	279.982	1	1	1	1110.801	112.974	275.279
291.744	279.260	1	1	1	1070.745	112.974	275.279
292.400	278.505	1	1	1	1096.329	112.974	275.279
293.051	277.746	1	1	1	1064.494	112.974	275.279
293.702	276.987	1	1	1	1062.700	112.974	275.279
294.353	276.227	1	1	1	1099.378	112.974	275.279
295.004	275.468	1	1	1	1115.559	112.974	275.279
295.654	274.709	1	1	1	1076.067	112.974	275.279
296.305	273.949	1	1	1	1049.473	112.974	275.279
296.956	273.190	1	1	1	979.634	112.974	275.279
297.607	272.431	1	1	1	921.415	112.974	275.279
298.258	271.672	1	1	1	909.597	112.974	275.279
298.908	270.912	1	1	1	868.500	112.974	275.279
299.559	270.153	1	1	1	830.200	112.974	275.279
300.087	269.304	1	1	1	840.346	112.974	275.279
300.518	268.401	1	1	1	864.419	112.974	275.279
300.949	267.499	1	1	1	912.161	112.974	275.279
301.380	266.597	1	1	1	934.955	112.974	275.279
301.811	265.695	1	1	1	979.925	112.974	275.279
302.243	264.792	1	1	1	960.650	112.974	275.279
302.674	263.890	1	1	1	923.475	112.974	275.279
303.105	262.988	1	1	1	875.309	112.974	275.279
303.536	262.086	1	1	1	791.560	112.974	275.279
303.968	261.183	1	1	1	795.897	112.974	275.279
304.399	260.281	1	1	1	796.786	112.974	275.279
304.830	259.379	1	1	1	843.131	112.974	275.279
305.261	258.477	1	1	1	906.508	112.974	275.279
305.704	257.580	1	1	1	903.433	112.974	275.279
306.147	256.684	1	1	1	902.120	112.974	275.279
306.590	255.787	1	1	1	852.723	112.974	275.279
307.033	254.890	1	1	1	858.441	112.974	275.279
307.476	253.994	1	1	1	847.808	112.974	275.279
307.918	253.097	1	1	1	860.554	112.974	275.279
308.361	252.201	1	1	1	840.739	112.974	275.279
308.804	251.304	1	1	1	832.899	112.974	275.279
309.247	250.407	1	1	1	810.351	112.974	275.279
309.690	249.511	1	1	1	788.445	112.974	275.279
310.133	248.614	1	1	1	785.156	112.974	275.279
310.576	247.717	1	1	1	814.475	112.974	275.279
311.018	246.821	1	1	1	893.437	112.974	275.279
311.461	245.924	1	1	1	929.210	112.974	275.279
311.904	245.028	1	1	1	999.949	112.974	275.279
312.331	244.123	1	1	1	987.579	112.974	275.279
312.754	243.217	1	1	1	1001.600	112.974	275.279
313.176	242.311	1	1	1	960.600	112.974	275.279
313.599	241.404	1	1	1	967.087	112.974	275.279
314.021	240.498	1	1	1	967.262	112.974	275.279
314.444	239.592	1	1	1	999.797	112.974	275.279
314.866	238.685	1	1	1	992.241	112.974	275.279
315.289	237.779	1	1	1	950.907	112.974	275.279
315.711	236.873	1	1	1	961.601	112.974	275.279
316.134	235.966	1	1	1	983.745	112.974	275.279
316.556	235.060	1	1	1	991.521	112.974	275.279
316.979	234.154	1	1	1	985.459	112.974	275.279
317.402	233.247	1	1	1	958.980	112.974	275.279
317.758	232.313	1	1	1	934.048	112.974	275.279
317.799	231.314	1	1	1	947.866	112.974	275.279
317.841	230.315	1	1	1	969.941	112.974	275.279
317.883	229.316	1	1	1	936.845	112.974	275.279
317.924	228.316	1	1	1	926.735	112.974	275.279
317.966	227.317	1	1	1	945.681	112.974	275.279
318.008	226.318	1	1	1	952.136	112.974	275.279
318.049	225.319	1	1	1	977.032	112.974	275.279
318.091	224.320	1	1	1	979.104	112.974	275.279
318.132	223.321	1	1	1	950.426	112.974	275.279
318.174	222.322	1	1	1	924.972	112.974	275.279
318.216	221.322	1	1	1	895.675	112.974	275.279
318.257	220.323	1	1	1	897.152	112.974	275.279
318.299	219.324	1	1	1	880.580	112.974	275.279
318.341	218.325	1	1	1	887.822	112.974	275.279
318.382	217.326	1	1	1	860.696	112.974	275.279
318.424	216.327	1	1	1	841.461	112.974	275.279
318.466	215.328	1	1	1	864.013	112.974	275.279
318.505	214.328	1	1	1	861.603	112.974	275.279
318.536	213.329	1	1	1	865.196	112.974	275.279
318.567	212.329	1	1	1	862.020	112.974	275.279
318.598	211.330	1	1	1	848.365	112.974	275.279
318.628	210.330	1	1	1	863.961	112.974	275.279
318.659	209.331	1	1	1	893.995	112.974	275.279
318.690	208.331	1	1	1	896.398	112.974	275.279
318.721	207.332	1	1	1	879.142	112.974	275.279
318.751	206.332	1	1	1	849.452	112.974	275.279
318.782	205.333	1	1	1	851.024	112.974	275.279
318.813	204.333	1	1	1	883.868	112.974	275.279
318.844	203.334	1	1	1	907.658	112.974	275.279
318.874	202.334	1	1	1	924.901	112.974	275.279
318.905	201.335	1	1	1	928.966	112.974	275.279
318.936	200.335	1	1	1	972.293	112.974	275.279
318.967	199.336	1	1	1	1025.287	112.974	275.279
318.997	198.336	1	1	1	987.221	112.974	275.279
318.778	197.360	1	1	1	956.177	112.974	275.279
318.535	196.390	1	1	1	970.492	112.974	275.279
318.293	195.420	1	1	1	924.468	112.974	275.279
318.050	194.450	1	1	1	890.500	112.974	275.279
317.807	193.480	1	1	1	865.070	112.974	275.279
317.565	192.510	1	1	1	833.754	112.974	275.279
317.322	191.540	1	1	1	880.178	112.974	275.279
317.080	190.569	1	1	1	913.276	112.974	275.279
316.837	189.599	1	1	1	903.647	112.974	275.279
316.595	188.629	1	1	1	930.948	112.974	275.279
316.352	187.659	1	1	1	952.051	112.974	275.279
316.110	186.689	1	1	1	976.323	112.974	275.279
315.867	185.719	1	1	1	962.990	112.974	275.279
315.625	184.749	1	1	1	976.656	112.974	275.279
315.382	183.778	1	1	1	955.498	112.974	275.279
315.048	182.836	1	1	1	910.557	112.974	275.279
314.610	181.937	1	1	1	881.973	112.974	275.279
314.171	181.038	1	1	1	868.982	112.974	275.279
313.733	180.140	1	1	1	850.588	112.974	275.279
313.294	179.241	1	1	1	858.950	112.974	275.279
312.856	178.342	1	1	1	893.119	112.974	275.279
312.417	177.443	1	1	1	996.716	112.974	275.279
311.979	176.545	1	1	1	1019.987	112.974	275.279
311.541	175.646	1	1	1	1056.966	112.974	275.279
311.102	174.747	1	1	1	1042.232	112.974	275.279
310.664	173.848	1	1	1	1049.023	112.974	275.279
310.231	172.947	1	1	1	1069.866	112.974	275.279
309.893	172.006	1	1	1	1070.049	112.974	275.279
309.555	171.064	1	1	1	1074.398	112.974	275.279
309.217	170.123	1	1	1	1083.072	112.974	275.279
308.879	169.182	1	1	1	1094.974	112.974	275.279
308.542	168.241	1	1	1	1117.479	112.974	275.279
308.204	167.300	1	1	1	1105.417	112.974	275.279
307.866	166.358	1	1	1	1129.282	112.974	275.279
307.528	165.417	1	1	1	1131.998	112.974	275.279
307.190	164.476	1	1	1	1113.986	112.974	275.279
306.852	163.535	1	1	1	1117.065	112.974	275.279
306.514	162.594	1	1	1	1094.801	112.974	275.279
306.177	161.652	1	1	1	1103.563	112.974	275.279
305.839	160.711	1	1	1	1101.344	112.974	275.279
305.501	159.770	1	1	1	1104.331	112.974	275.279
305.163	158.829	1	1	1	1060.628	112.974	275.279
304.825	157.888	1	1	1	1040.776	112.974	275.279
304.487	156.947	1	1	1	955.582	112.974	275.279
304.149	156.005	1	1	1	990.011	112.974	275.279
303.811	155.064	1	1	1	987.852	112.974	275.279
303.474	154.123	1	1	1	982.447	112.974	275.279
303.112	153.191	1	1	1	974.778	112.974	275.279
302.705	152.277	1	1	1	928.396	112.974	275.279
302.297	151.364	1	1	1	881.675	112.974	275.279
301.890	150.451	1	1	1	849.922	112.974	275.279
301.482	149.538	1	1	1	879.203	112.974	275.279
301.075	148.624	1	1	1	880.037	112.974	275.279
300.667	147.711	1	1	1	844.903	112.974	275.279
300.260	146.798	1	1	1	875.957	112.974	275.279
299.852	145.885	1	1	1	852.225	112.974	275.279
299.445	144.972	1	1	1	856.636	112.974	275.279
299.038	144.058	1	1	1	879.303	112.974	275.279
298.630	143.145	1	1	1	873.544	112.974	275.279
298.223	142.232	1	1	1	888.550	112.974	275.279
297.815	141.319	1	1	1	867.371	112.974	275.279
297.408	140.405	1	1	1	868.167	112.974	275.279
297.000	139.492	1	1	1	855.980	112.974	275.279
296.593	138.579	1	1	1	818.992	112.974	275.279
296.185	137.666	1	1	1	805.456	112.974	275.279
295.669	136.809	1	1	1	782.642	112.974	275.279
295.069	136.009	1	1	1	799.105	112.974	275.279
294.469	135.209	1	1	1	811.365	112.974	275.279
293.869	134.409	1	1	1	827.135	112.974	275.279
293.269	133.609	1	1	1	775.761	112.974	275.279
292.669	132.809	1	1	1	780.062	112.974	275.279
292.069	132.009	1	1	1	787.616	112.974	275.279
291.469	131.209	1	1	1	804.746	112.974	275.279
290.869	130.409	1	1	1	839.989	112.974	275.279
290.269	129.609	1	1	1	850.113	112.974	275.279
289.669	128.809	1	1	1	837.263	112.974	275.279
289.069	128.009	1	1	1	851.881	112.974	275.279
288.469	127.209	1	1	1	896.978	112.974	275.279
287.869	126.409	1	1	1	945.361	112.974	275.279
287.269	125.609	1	1	1	934.533	112.974	275.279
286.669	124.809	1	1	1	992.213	112.974	275.279
286.069	124.009	1	1	1	1032.689	112.974	275.279
285.469	123.209	1	1	1	1049.843	112.974	275.279
284.869	122.409	1	1	1	1039.424	112.974	275.279
284.098	121.773	1	1	1	1089.007	112.974	275.279
283.291	121.182	1	1	1	1041.990	112.974	275.279
282.485	120.591	1	1	1	1049.181	112.974	275.279
281.678	120.000	1	1	1	1038.916	112.974	275.279
280.871	119.409	1	1	1	1031.270	112.974	275.279
280.064	118.818	1	1	1	1031.627	112.974	275.279
279.258	118.227	1	1	1	991.509	112.974	275.279
278.451	117.636	1	1	1	1041.916	112.974	275.279
277.644	117.046	1	1	1	1079.929	112.974	275.279
276.837	116.455	1	1	1	1040.941	112.974	275.279
276.030	115.864	1	1	1	1054.944	112.974	275.279
275.224	115.273	1	1	1	1050.417	112.974	275.279
274.417	114.682	1	1	1	1010.989	112.974	275.279
273.610	114.091	1	1	1	1031.370	112.974	275.279
272.803	113.500	1	1	1	983.657	112.974	275.279
271.997	112.910	1	1	1	956.634	112.974	275.279
271.190	112.319	1	1	1	991.839	112.974	275.279
270.383	111.728	1	1	1	1008.065	112.974	275.279
269.576	111.137	1	1	1	1039.921	112.974	275.279
268.770	110.546	1	1	1	1042.704	112.974	275.279
267.963	109.955	1	1	1	1083.804	112.974	275.279
267.156	109.364	1	1	1	1130.329	112.974	275.279
266.304	108.841	1	1	1	1164.810	112.974	275.279
265.442	108.334	1	1	1	1201.248	112.974	275.279
264.580	107.827	1	1	1	1246.397	112.974	275.279
263.718	107.320	1	1	1	1254.600	112.974	275.279
262.856	106.813	1	1	1	1276.626	112.974	275.279
261.994	106.306	1	1	1	1306.871	112.974	275.279
261.133	105.799	1	1	1	1311.150	112.974	275.279
260.271	105.292	1	1	1	1248.858	112.974	275.279
259.409	104.784	1	1	1	1234.987	112.974	275.279
258.547	104.277	1	1	1	1208.881	112.974	275.279
257.625	103.890	1	1	1	1182.186	112.974	275.279
256.700	103.509	1	1	1	1107.395	112.974	275.279
255.776	103.128	1	1	1	1060.448	112.974	275.279
254.851	102.747	1	1	1	1048.219	112.974	275.279
253.926	102.367	1	1	1	991.111	112.974	275.279
253.002	101.986	1	1	1	955.685	112.974	275.279
252.077	101.605	1	1	1	948.458	112.974	275.279
251.152	101.224	1	1	1	975.809	112.974	275.279
250.228	100.844	1	1	1	1008.382	112.974	275.279
249.331	100.400	1	1	1	980.359	112.974	275.279
248.446	99.936	1	1	1	978.973	112.974	275.279
247.560	99.472	1	1	1	999.434	112.974	275.279
246.674	99.008	1	1	1	1001.576	112.974	275.279
245.788	98.544	1	1	1	1011.841	112.974	275.279
244.902	98.080	1	1	1	998.782	112.974	275.279
243.908	97.973	1	1	1	973.751	112.974	275.279
242.909	97.941	1	1	1	957.413	112.974	275.279
241.909	97.908	1	1	1	902.228	112.974	275.279
240.910	97.876	1	1	1	908.846	112.974	275.279
239.910	97.844	1	1	1	895.752	112.974	275.279
238.911	97.812	1	1	1	908.106	112.974	275.279
237.911	97.779	1	1	1	904.023	112.974	275.279
236.916	97.685	1	1	1	878.262	112.974	275.279
236.123	97.075	1	1	1	867.773	112.974	275.279
235.330	96.466	1	1	1	862.825	112.974	275.279
234.538	95.856	1	1	1	897.926	112.974	275.279
233.745	95.246	1	1	1	870.191	112.974	275.279
232.952	94.637	1	1	1	903.680	112.974	275.279
232.160	94.027	1	1	1	920.772	112.974	275.279
231.367	93.417	1	1	1	936.802	112.974	275.279
230.575	92.807	1	1	1	979.113	112.974	275.279
229.701	92.320	1	1	1	937.692	112.974	275.279
228.821	91.846	1	1	1	922.554	112.974	275.279
227.940	91.372	1	1	1	904.617	112.974	275.279
227.060	90.898	1	1	1	903.126	112.974	275.279
226.180	90.424	1	1	1	908.702	112.974	275.279
225.299	89.949	1	1	1	927.116	112.974	275.279
224.419	89.475	1	1	1	974.642	112.974	275.279
223.440	89.270	1	1	1	984.756	112.974	275.279
222.440	89.307	1	1	1	1001.544	112.974	275.279
221.441	89.344	1	1	1	988.470	112.974	275.279
220.442	89.380	1	1	1	967.932	112.974	275.279
219.442	89.417	1	1	1	963.800	112.974	275.279
218.443	89.453	1	1	1	924.082	112.974	275.279
217.444	89.490	1	1	1	912.577	112.974	275.279
216.483	89.769	1	1	1	927.160	112.974	275.279
215.553	90.135	1	1	1	956.587	112.974	275.279
214.622	90.501	1	1	1	955.918	112.974	275.279
213.692	90.867	1	1	1	977.877	112.974	275.279
212.761	91.233	1	1	1	966.266	112.974	275.279
211.831	91.599	1	1	1	944.117	112.974	275.279
210.900	91.966	1	1	1	936.464	112.974	275.279
209.970	92.332	1	1	1	902.180	112.974	275.279
209.039	92.698	1	1	1	880.233	112.974	275.279
208.108	93.064	1	1	1	879.857	112.974	275.279
207.178	93.430	1	1	1	846.842	112.974	275.279
206.185	93.553	1	1	1	815.728	112.974	275.279
205.188	93.618	1	1	1	857.749	112.974	275.279
204.190	93.683	1	1	1	837.017	112.974	275.279
203.192	93.748	1	1	1	811.225	112.974	275.279
202.194	93.813	1	1	1	830.414	112.974	275.279
201.196	93.879	1	1	1	796.196	112.974	275.279
200.198	93.944	1	1	1	814.758	112.974	275.279
199.199	93.992	1	1	1	813.518	112.974	275.279
198.201	93.935	1	1	1	847.738	112.974	275.279
197.203	93.877	1	1	1	851.247	112.974	275.279
196.204	93.819	1	1	1	873.654	112.974	275.279
195.206	93.762	1	1	1	893.829	112.974	275.279
194.208	93.704	1	1	1	895.034	112.974	275.279
193.209	93.647	1	1	1	880.129	112.974	275.279
192.211	93.589	1	1	1	881.409	112.974	275.279
191.213	93.532	1	1	1	943.763	112.974	275.279
190.216	93.608	1	1	1	924.597	112.974	275.279
189.243	93.840	1	1	1	948.747	112.974	275.279
188.270	94.073	1	1	1	929.210	112.974	275.279
187.298	94.306	1	1	1	906.449	112.974	275.279
186.325	94.538	1	1	1	911.388	112.974	275.279
185.353	94.771	1	1	1	926.580	112.974	275.279
184.380	95.003	1	1	1	894.352	112.974	275.279
183.408	95.236	1	1	1	857.222	112.974	275.279
182.425	95.421	1	1	1	864.547	112.974	275.279
181.436	95.570	1	1	1	855.730	112.974	275.279
180.447	95.720	1	1	1	879.360	112.974	275.279
179.459	95.870	1	1	1	910.361	112.974	275.279
178.470	96.020	1	1	1	926.425	112.974	275.279
177.481	96.167	1	1	1	936.534	112.974	275.279
176.481	96.167	1	1	1	951.385	112.974	275.279
175.481	96.167	1	1	1	957.499	112.974	275.279
174.481	96.167	1	1	1	984.586	112.974	275.279
173.481	96.167	1	1	1	1002.748	112.974	275.279
172.481	96.167	1	1	1	1039.869	112.974	275.279
171.481	96.167	1	1	1	1053.038	112.974	275.279
170.481	96.167	1	1	1	1086.986	112.974	275.279
169.481	96.167	1	1	1	1130.899	112.974	275.279
168.505	96.387	1	1	1	1156.730	112.974	275.279
167.557	96.703	1	1	1	1187.845	112.974	275.279
166.608	97.020	1	1	1	1176.529	112.974	275.279
165.659	97.336	1	1	1	1160.973	112.974	275.279
164.711	97.652	1	1	1	1095.965	112.974	275.279
163.762	97.968	1	1	1	1094.818	112.974	275.279
162.813	98.284	1	1	1	1100.257	112.974	275.279
161.865	98.601	1	1	1	1131.101	112.974	275.279
160.916	98.917	1	1	1	1194.951	112.974	275.279
159.995	99.307	1	1	1	1179.453	112.974	275.279
159.221	99.940	1	1	1	1177.071	112.974	275.279
158.447	100.574	1	1	1	1133.082	112.974	275.279
157.673	101.207	1	1	1	1074.359	112.974	275.279
156.899	101.840	1	1	1	1040.089	112.974	275.279
156.125	102.473	1	1	1	1042.275	112.974	275.279
155.351	103.106	1	1	1	1018.038	112.974	275.279
154.577	103.740	1	1	1	1023.563	112.974	275.279
153.803	104.373	1	1	1	984.518	112.974	275.279
153.029	105.006	1	1	1	963.654	112.974	275.279
152.168	105.514	1	1	1	972.016	112.974	275.279
151.282	105.978	1	1	1	993.373	112.974	275.279
150.396	106.441	1	1	1	979.886	112.974	275.279
149.510	106.904	1	1	1	1022.713	112.974	275.279
148.623	107.367	1	1	1	1055.214	112.974	275.279
147.737	107.831	1	1	1	1049.737	112.974	275.279
146.851	108.294	1	1	1	1057.022	112.974	275.279
145.965	108.757	1	1	1	1072.511	112.974	275.279
