X	Y	C	Z	T	Intensity	BG	MX
91.167	104.500	2	1	1	143.749	104.721	164.120
90.719	105.394	2	1	1	136.541	104.721	164.120
90.272	106.289	2	1	1	133.713	104.721	164.120
89.825	107.183	2	1	1	136.074	104.721	164.120
89.378	108.078	2	1	1	133.656	104.721	164.120
88.954	108.983	2	1	1	126.233	104.721	164.120
88.658	109.939	2	1	1	127.615	104.721	164.120
88.362	110.894	2	1	1	130.355	104.721	164.120
88.067	111.849	2	1	1	136.992	104.721	164.120
87.771	112.804	2	1	1	139.985	104.721	164.120
87.475	113.760	2	1	1	137.029	104.721	164.120
87.179	114.715	2	1	1	143.414	104.721	164.120
86.884	115.670	2	1	1	151.460	104.721	164.120
86.407	116.549	2	1	1	147.528	104.721	164.120
85.895	117.408	2	1	1	139.900	104.721	164.120
85.383	118.267	2	1	1	141.629	104.721	164.120
84.871	119.127	2	1	1	143.115	104.721	164.120
84.360	119.986	2	1	1	144.163	104.721	164.120
83.848	120.845	2	1	1	149.330	104.721	164.120
83.336	121.704	2	1	1	140.503	104.721	164.120
82.824	122.563	2	1	1	150.819	104.721	164.120
82.312	123.422	2	1	1	135.762	104.721	164.120
81.887	124.327	2	1	1	140.331	104.721	164.120
81.498	125.248	2	1	1	137.536	104.721	164.120
81.109	126.169	2	1	1	137.082	104.721	164.120
80.719	127.091	2	1	1	137.221	104.721	164.120
80.330	128.012	2	1	1	134.747	104.721	164.120
79.941	128.933	2	1	1	137.933	104.721	164.120
79.551	129.854	2	1	1	141.504	104.721	164.120
79.162	130.775	2	1	1	146.197	104.721	164.120
78.773	131.696	2	1	1	134.603	104.721	164.120
78.396	132.622	2	1	1	148.970	104.721	164.120
78.019	133.549	2	1	1	147.183	104.721	164.120
77.643	134.475	2	1	1	135.639	104.721	164.120
77.267	135.402	2	1	1	144.265	104.721	164.120
76.890	136.328	2	1	1	138.725	104.721	164.120
76.514	137.255	2	1	1	142.944	104.721	164.120
76.137	138.181	2	1	1	146.358	104.721	164.120
75.761	139.107	2	1	1	141.624	104.721	164.120
75.352	140.020	2	1	1	138.152	104.721	164.120
74.871	140.897	2	1	1	140.264	104.721	164.120
74.390	141.774	2	1	1	129.273	104.721	164.120
73.909	142.650	2	1	1	130.111	104.721	164.120
73.429	143.527	2	1	1	142.785	104.721	164.120
72.948	144.404	2	1	1	132.153	104.721	164.120
72.467	145.281	2	1	1	133.962	104.721	164.120
71.986	146.158	2	1	1	130.670	104.721	164.120
71.505	147.034	2	1	1	129.806	104.721	164.120
71.107	147.952	2	1	1	126.973	104.721	164.120
70.805	148.905	2	1	1	127.240	104.721	164.120
70.502	149.858	2	1	1	131.199	104.721	164.120
70.200	150.811	2	1	1	127.199	104.721	164.120
69.898	151.765	2	1	1	132.438	104.721	164.120
69.596	152.718	2	1	1	129.586	104.721	164.120
69.293	153.671	2	1	1	135.121	104.721	164.120
68.991	154.624	2	1	1	135.525	104.721	164.120
68.689	155.577	2	1	1	133.821	104.721	164.120
68.387	156.531	2	1	1	134.460	104.721	164.120
68.084	157.484	2	1	1	137.085	104.721	164.120
67.829	158.451	2	1	1	135.590	104.721	164.120
67.592	159.422	2	1	1	135.029	104.721	164.120
67.354	160.394	2	1	1	133.562	104.721	164.120
67.117	161.365	2	1	1	132.481	104.721	164.120
66.880	162.336	2	1	1	129.430	104.721	164.120
66.642	163.308	2	1	1	127.287	104.721	164.120
66.405	164.279	2	1	1	130.499	104.721	164.120
66.168	165.251	2	1	1	130.941	104.721	164.120
65.930	166.222	2	1	1	126.495	104.721	164.120
65.693	167.194	2	1	1	127.958	104.721	164.120
65.456	168.165	2	1	1	130.549	104.721	164.120
65.328	169.157	2	1	1	126.222	104.721	164.120
65.317	170.157	2	1	1	128.720	104.721	164.120
65.307	171.157	2	1	1	133.263	104.721	164.120
65.296	172.157	2	1	1	135.404	104.721	164.120
65.286	173.157	2	1	1	138.024	104.721	164.120
65.275	174.157	2	1	1	131.427	104.721	164.120
65.264	175.157	2	1	1	140.796	104.721	164.120
65.254	176.156	2	1	1	140.055	104.721	164.120
65.283	177.156	2	1	1	149.084	104.721	164.120
65.333	178.155	2	1	1	146.547	104.721	164.120
65.383	179.154	2	1	1	147.977	104.721	164.120
65.433	180.152	2	1	1	140.484	104.721	164.120
65.483	181.151	2	1	1	142.719	104.721	164.120
65.532	182.150	2	1	1	143.137	104.721	164.120
65.582	183.149	2	1	1	147.920	104.721	164.120
65.632	184.147	2	1	1	140.226	104.721	164.120
65.682	185.146	2	1	1	147.266	104.721	164.120
65.732	186.145	2	1	1	144.414	104.721	164.120
65.763	187.144	2	1	1	145.138	104.721	164.120
65.783	188.144	2	1	1	140.418	104.721	164.120
65.803	189.144	2	1	1	135.374	104.721	164.120
65.823	190.144	2	1	1	135.649	104.721	164.120
65.843	191.144	2	1	1	140.835	104.721	164.120
65.863	192.143	2	1	1	141.972	104.721	164.120
65.883	193.143	2	1	1	147.365	104.721	164.120
65.903	194.143	2	1	1	140.028	104.721	164.120
65.923	195.143	2	1	1	143.546	104.721	164.120
65.943	196.143	2	1	1	145.890	104.721	164.120
65.963	197.142	2	1	1	137.042	104.721	164.120
65.983	198.142	2	1	1	132.985	104.721	164.120
66.022	199.141	2	1	1	135.674	104.721	164.120
66.178	200.129	2	1	1	136.757	104.721	164.120
66.334	201.117	2	1	1	137.936	104.721	164.120
66.490	202.105	2	1	1	141.347	104.721	164.120
66.646	203.092	2	1	1	149.142	104.721	164.120
66.802	204.080	2	1	1	144.149	104.721	164.120
66.958	205.068	2	1	1	129.757	104.721	164.120
67.114	206.056	2	1	1	139.174	104.721	164.120
67.270	207.044	2	1	1	138.485	104.721	164.120
67.426	208.031	2	1	1	131.733	104.721	164.120
67.740	208.981	2	1	1	131.750	104.721	164.120
68.188	209.875	2	1	1	133.216	104.721	164.120
68.635	210.769	2	1	1	137.956	104.721	164.120
69.082	211.664	2	1	1	134.401	104.721	164.120
69.529	212.558	2	1	1	140.470	104.721	164.120
69.976	213.453	2	1	1	137.948	104.721	164.120
70.424	214.347	2	1	1	141.718	104.721	164.120
70.871	215.242	2	1	1	146.128	104.721	164.120
71.318	216.136	2	1	1	146.993	104.721	164.120
71.765	217.030	2	1	1	152.171	104.721	164.120
72.212	217.925	2	1	1	148.934	104.721	164.120
72.689	218.804	2	1	1	152.473	104.721	164.120
73.167	219.682	2	1	1	150.515	104.721	164.120
73.646	220.560	2	1	1	155.972	104.721	164.120
74.125	221.438	2	1	1	158.782	104.721	164.120
74.604	222.316	2	1	1	152.856	104.721	164.120
75.083	223.194	2	1	1	155.480	104.721	164.120
75.562	224.072	2	1	1	151.310	104.721	164.120
76.041	224.949	2	1	1	151.968	104.721	164.120
76.519	225.827	2	1	1	152.611	104.721	164.120
76.998	226.705	2	1	1	157.103	104.721	164.120
77.477	227.583	2	1	1	152.739	104.721	164.120
77.956	228.461	2	1	1	144.562	104.721	164.120
78.472	229.317	2	1	1	153.236	104.721	164.120
79.046	230.137	2	1	1	154.700	104.721	164.120
79.619	230.956	2	1	1	147.163	104.721	164.120
80.193	231.775	2	1	1	154.494	104.721	164.120
80.766	232.594	2	1	1	153.335	104.721	164.120
81.340	233.414	2	1	1	142.471	104.721	164.120
81.913	234.233	2	1	1	142.206	104.721	164.120
82.486	235.052	2	1	1	136.792	104.721	164.120
83.060	235.871	2	1	1	137.388	104.721	164.120
83.561	236.737	2	1	1	141.669	104.721	164.120
83.812	237.705	2	1	1	138.942	104.721	164.120
84.062	238.673	2	1	1	141.725	104.721	164.120
84.312	239.641	2	1	1	139.792	104.721	164.120
84.563	240.609	2	1	1	144.867	104.721	164.120
84.813	241.577	2	1	1	151.625	104.721	164.120
85.063	242.546	2	1	1	156.005	104.721	164.120
85.314	243.514	2	1	1	155.064	104.721	164.120
85.564	244.482	2	1	1	161.562	104.721	164.120
85.815	245.450	2	1	1	154.165	104.721	164.120
86.065	246.418	2	1	1	145.411	104.721	164.120
86.315	247.386	2	1	1	151.446	104.721	164.120
86.566	248.354	2	1	1	142.491	104.721	164.120
86.816	249.323	2	1	1	147.510	104.721	164.120
87.067	250.291	2	1	1	145.679	104.721	164.120
87.364	251.245	2	1	1	149.286	104.721	164.120
87.786	252.152	2	1	1	151.012	104.721	164.120
88.208	253.059	2	1	1	148.857	104.721	164.120
88.629	253.966	2	1	1	152.373	104.721	164.120
89.051	254.872	2	1	1	152.107	104.721	164.120
89.473	255.779	2	1	1	148.067	104.721	164.120
89.895	256.686	2	1	1	151.829	104.721	164.120
90.316	257.592	2	1	1	164.933	104.721	164.120
90.738	258.499	2	1	1	152.375	104.721	164.120
91.160	259.406	2	1	1	152.186	104.721	164.120
91.581	260.313	2	1	1	152.383	104.721	164.120
92.003	261.219	2	1	1	155.608	104.721	164.120
92.341	262.160	2	1	1	144.051	104.721	164.120
92.558	263.137	2	1	1	152.164	104.721	164.120
92.775	264.113	2	1	1	153.666	104.721	164.120
92.992	265.089	2	1	1	150.646	104.721	164.120
93.209	266.065	2	1	1	159.399	104.721	164.120
93.426	267.041	2	1	1	148.199	104.721	164.120
93.643	268.018	2	1	1	143.094	104.721	164.120
93.860	268.994	2	1	1	134.359	104.721	164.120
94.077	269.970	2	1	1	145.261	104.721	164.120
94.294	270.946	2	1	1	135.922	104.721	164.120
94.511	271.922	2	1	1	140.130	104.721	164.120
94.727	272.899	2	1	1	136.789	104.721	164.120
95.299	273.719	2	1	1	133.294	104.721	164.120
95.906	274.514	2	1	1	135.911	104.721	164.120
96.512	275.309	2	1	1	147.939	104.721	164.120
97.119	276.104	2	1	1	143.657	104.721	164.120
97.726	276.899	2	1	1	139.032	104.721	164.120
98.332	277.694	2	1	1	146.018	104.721	164.120
98.939	278.489	2	1	1	137.391	104.721	164.120
99.546	279.284	2	1	1	139.690	104.721	164.120
100.152	280.079	2	1	1	133.904	104.721	164.120
100.759	280.874	2	1	1	127.193	104.721	164.120
101.366	281.669	2	1	1	137.197	104.721	164.120
101.972	282.464	2	1	1	135.103	104.721	164.120
102.810	283.010	2	1	1	133.535	104.721	164.120
103.656	283.543	2	1	1	132.896	104.721	164.120
104.502	284.076	2	1	1	140.557	104.721	164.120
105.349	284.608	2	1	1	129.899	104.721	164.120
106.195	285.141	2	1	1	133.226	104.721	164.120
107.041	285.674	2	1	1	136.757	104.721	164.120
107.887	286.207	2	1	1	136.570	104.721	164.120
108.733	286.740	2	1	1	144.720	104.721	164.120
109.363	287.516	2	1	1	138.407	104.721	164.120
109.988	288.297	2	1	1	141.989	104.721	164.120
110.613	289.078	2	1	1	138.767	104.721	164.120
111.237	289.859	2	1	1	136.952	104.721	164.120
111.862	290.640	2	1	1	135.001	104.721	164.120
112.487	291.421	2	1	1	137.010	104.721	164.120
113.111	292.202	2	1	1	133.624	104.721	164.120
113.736	292.983	2	1	1	135.324	104.721	164.120
114.361	293.763	2	1	1	140.040	104.721	164.120
114.985	294.544	2	1	1	139.024	104.721	164.120
115.610	295.325	2	1	1	148.554	104.721	164.120
116.358	295.989	2	1	1	143.450	104.721	164.120
117.137	296.616	2	1	1	141.690	104.721	164.120
117.916	297.243	2	1	1	135.640	104.721	164.120
118.695	297.870	2	1	1	133.615	104.721	164.120
119.474	298.497	2	1	1	135.671	104.721	164.120
120.253	299.124	2	1	1	145.228	104.721	164.120
121.032	299.751	2	1	1	146.077	104.721	164.120
121.811	300.378	2	1	1	142.134	104.721	164.120
122.590	301.005	2	1	1	138.445	104.721	164.120
123.369	301.632	2	1	1	138.535	104.721	164.120
124.148	302.259	2	1	1	131.869	104.721	164.120
124.927	302.886	2	1	1	139.406	104.721	164.120
125.706	303.513	2	1	1	145.764	104.721	164.120
126.428	304.206	2	1	1	148.303	104.721	164.120
127.112	304.935	2	1	1	145.776	104.721	164.120
127.797	305.664	2	1	1	144.378	104.721	164.120
128.481	306.393	2	1	1	149.161	104.721	164.120
129.165	307.122	2	1	1	143.946	104.721	164.120
129.850	307.851	2	1	1	144.639	104.721	164.120
130.534	308.580	2	1	1	140.427	104.721	164.120
131.219	309.309	2	1	1	142.552	104.721	164.120
131.903	310.038	2	1	1	138.108	104.721	164.120
132.588	310.767	2	1	1	140.833	104.721	164.120
133.272	311.496	2	1	1	140.449	104.721	164.120
133.956	312.225	2	1	1	138.837	104.721	164.120
134.641	312.954	2	1	1	139.706	104.721	164.120
135.325	313.683	2	1	1	133.580	104.721	164.120
136.010	314.413	2	1	1	130.080	104.721	164.120
136.694	315.142	2	1	1	130.992	104.721	164.120
137.379	315.871	2	1	1	130.509	104.721	164.120
138.219	316.413	2	1	1	132.185	104.721	164.120
139.086	316.911	2	1	1	128.825	104.721	164.120
139.953	317.408	2	1	1	132.560	104.721	164.120
140.821	317.906	2	1	1	130.799	104.721	164.120
141.688	318.404	2	1	1	131.509	104.721	164.120
142.555	318.902	2	1	1	136.303	104.721	164.120
143.422	319.400	2	1	1	134.450	104.721	164.120
144.290	319.898	2	1	1	132.487	104.721	164.120
145.157	320.396	2	1	1	139.362	104.721	164.120
146.024	320.894	2	1	1	145.011	104.721	164.120
146.891	321.391	2	1	1	143.869	104.721	164.120
147.759	321.889	2	1	1	137.668	104.721	164.120
148.626	322.387	2	1	1	134.100	104.721	164.120
149.493	322.885	2	1	1	133.654	104.721	164.120
150.361	323.383	2	1	1	135.169	104.721	164.120
151.234	323.869	2	1	1	141.988	104.721	164.120
152.126	324.323	2	1	1	153.218	104.721	164.120
153.017	324.776	2	1	1	149.177	104.721	164.120
153.908	325.230	2	1	1	140.192	104.721	164.120
154.799	325.683	2	1	1	142.332	104.721	164.120
155.691	326.137	2	1	1	144.586	104.721	164.120
156.582	326.590	2	1	1	135.925	104.721	164.120
157.473	327.043	2	1	1	140.380	104.721	164.120
158.365	327.497	2	1	1	138.430	104.721	164.120
159.256	327.950	2	1	1	144.441	104.721	164.120
160.147	328.404	2	1	1	148.350	104.721	164.120
161.038	328.857	2	1	1	147.556	104.721	164.120
161.930	329.311	2	1	1	141.743	104.721	164.120
162.821	329.764	2	1	1	136.136	104.721	164.120
163.712	330.218	2	1	1	133.839	104.721	164.120
164.603	330.671	2	1	1	135.119	104.721	164.120
165.507	331.100	2	1	1	137.808	104.721	164.120
166.438	331.465	2	1	1	136.459	104.721	164.120
167.369	331.829	2	1	1	136.547	104.721	164.120
168.300	332.194	2	1	1	137.526	104.721	164.120
169.232	332.558	2	1	1	134.454	104.721	164.120
170.163	332.922	2	1	1	131.102	104.721	164.120
171.094	333.287	2	1	1	132.907	104.721	164.120
172.025	333.651	2	1	1	139.120	104.721	164.120
172.957	334.016	2	1	1	140.900	104.721	164.120
173.888	334.380	2	1	1	143.998	104.721	164.120
174.819	334.744	2	1	1	152.806	104.721	164.120
175.750	335.109	2	1	1	149.441	104.721	164.120
176.682	335.473	2	1	1	148.905	104.721	164.120
177.612	335.840	2	1	1	143.348	104.721	164.120
178.542	336.207	2	1	1	148.929	104.721	164.120
179.472	336.574	2	1	1	146.357	104.721	164.120
180.403	336.940	2	1	1	142.937	104.721	164.120
181.333	337.307	2	1	1	136.600	104.721	164.120
182.263	337.674	2	1	1	137.894	104.721	164.120
183.193	338.041	2	1	1	140.865	104.721	164.120
184.124	338.408	2	1	1	135.543	104.721	164.120
185.054	338.775	2	1	1	142.850	104.721	164.120
185.984	339.142	2	1	1	140.438	104.721	164.120
186.915	339.509	2	1	1	139.139	104.721	164.120
187.845	339.875	2	1	1	139.177	104.721	164.120
188.775	340.242	2	1	1	144.101	104.721	164.120
189.705	340.609	2	1	1	136.331	104.721	164.120
190.636	340.976	2	1	1	139.416	104.721	164.120
191.566	341.343	2	1	1	139.351	104.721	164.120
192.496	341.710	2	1	1	139.915	104.721	164.120
193.427	342.077	2	1	1	138.967	104.721	164.120
194.357	342.444	2	1	1	137.399	104.721	164.120
195.326	342.692	2	1	1	139.874	104.721	164.120
196.300	342.918	2	1	1	146.653	104.721	164.120
197.274	343.144	2	1	1	140.999	104.721	164.120
198.248	343.370	2	1	1	158.005	104.721	164.120
199.222	343.596	2	1	1	153.758	104.721	164.120
200.196	343.822	2	1	1	154.365	104.721	164.120
201.170	344.048	2	1	1	145.959	104.721	164.120
202.144	344.275	2	1	1	150.590	104.721	164.120
203.118	344.501	2	1	1	151.141	104.721	164.120
204.092	344.727	2	1	1	152.293	104.721	164.120
205.066	344.953	2	1	1	146.524	104.721	164.120
206.041	345.179	2	1	1	136.555	104.721	164.120
207.015	345.405	2	1	1	138.829	104.721	164.120
207.989	345.631	2	1	1	138.464	104.721	164.120
208.970	345.826	2	1	1	148.761	104.721	164.120
209.957	345.987	2	1	1	150.556	104.721	164.120
210.944	346.148	2	1	1	152.270	104.721	164.120
211.931	346.308	2	1	1	153.131	104.721	164.120
212.918	346.469	2	1	1	149.484	104.721	164.120
213.905	346.630	2	1	1	150.138	104.721	164.120
214.892	346.790	2	1	1	161.113	104.721	164.120
215.879	346.951	2	1	1	153.750	104.721	164.120
216.866	347.112	2	1	1	141.721	104.721	164.120
217.853	347.273	2	1	1	149.655	104.721	164.120
218.840	347.433	2	1	1	147.169	104.721	164.120
219.838	347.369	2	1	1	147.690	104.721	164.120
220.814	347.152	2	1	1	144.330	104.721	164.120
221.790	346.936	2	1	1	143.958	104.721	164.120
222.766	346.719	2	1	1	147.712	104.721	164.120
223.742	346.502	2	1	1	154.473	104.721	164.120
224.719	346.285	2	1	1	153.779	104.721	164.120
225.695	346.068	2	1	1	156.668	104.721	164.120
226.671	345.851	2	1	1	164.510	104.721	164.120
227.647	345.634	2	1	1	161.662	104.721	164.120
228.623	345.417	2	1	1	173.317	104.721	164.120
229.599	345.200	2	1	1	174.151	104.721	164.120
230.575	344.981	2	1	1	169.532	104.721	164.120
231.543	344.731	2	1	1	162.914	104.721	164.120
232.512	344.481	2	1	1	158.761	104.721	164.120
233.480	344.231	2	1	1	155.060	104.721	164.120
234.448	343.981	2	1	1	150.410	104.721	164.120
235.416	343.731	2	1	1	151.834	104.721	164.120
236.385	343.481	2	1	1	147.035	104.721	164.120
237.353	343.231	2	1	1	148.229	104.721	164.120
238.328	343.008	2	1	1	144.333	104.721	164.120
239.323	343.107	2	1	1	147.999	104.721	164.120
240.318	343.207	2	1	1	155.649	104.721	164.120
241.313	343.306	2	1	1	150.165	104.721	164.120
242.308	343.406	2	1	1	156.249	104.721	164.120
243.303	343.505	2	1	1	159.830	104.721	164.120
244.298	343.605	2	1	1	154.035	104.721	164.120
245.293	343.704	2	1	1	151.616	104.721	164.120
246.288	343.804	2	1	1	150.099	104.721	164.120
247.283	343.903	2	1	1	155.644	104.721	164.120
248.280	343.983	2	1	1	154.931	104.721	164.120
249.154	343.498	2	1	1	147.167	104.721	164.120
250.028	343.012	2	1	1	141.693	104.721	164.120
250.902	342.527	2	1	1	145.573	104.721	164.120
251.776	342.041	2	1	1	145.320	104.721	164.120
252.651	341.555	2	1	1	148.809	104.721	164.120
253.525	341.070	2	1	1	153.881	104.721	164.120
254.399	340.584	2	1	1	143.319	104.721	164.120
255.273	340.098	2	1	1	134.666	104.721	164.120
256.147	339.613	2	1	1	136.881	104.721	164.120
257.021	339.127	2	1	1	151.986	104.721	164.120
257.898	338.646	2	1	1	143.169	104.721	164.120
258.776	338.168	2	1	1	148.613	104.721	164.120
259.654	337.689	2	1	1	150.169	104.721	164.120
260.532	337.210	2	1	1	149.069	104.721	164.120
261.410	336.731	2	1	1	145.818	104.721	164.120
262.288	336.252	2	1	1	145.556	104.721	164.120
263.166	335.773	2	1	1	140.293	104.721	164.120
264.044	335.294	2	1	1	138.489	104.721	164.120
264.921	334.816	2	1	1	151.140	104.721	164.120
265.799	334.337	2	1	1	155.967	104.721	164.120
266.677	333.858	2	1	1	152.312	104.721	164.120
267.555	333.379	2	1	1	153.455	104.721	164.120
268.419	332.875	2	1	1	147.961	104.721	164.120
269.222	332.279	2	1	1	154.928	104.721	164.120
270.025	331.683	2	1	1	146.849	104.721	164.120
270.828	331.087	2	1	1	134.486	104.721	164.120
271.631	330.491	2	1	1	146.245	104.721	164.120
272.434	329.896	2	1	1	163.030	104.721	164.120
273.237	329.300	2	1	1	146.235	104.721	164.120
274.040	328.704	2	1	1	141.738	104.721	164.120
274.844	328.108	2	1	1	141.447	104.721	164.120
275.647	327.512	2	1	1	147.198	104.721	164.120
276.428	326.889	2	1	1	148.847	104.721	164.120
277.193	326.244	2	1	1	148.366	104.721	164.120
277.958	325.600	2	1	1	143.559	104.721	164.120
278.722	324.955	2	1	1	141.259	104.721	164.120
279.487	324.310	2	1	1	138.050	104.721	164.120
280.251	323.666	2	1	1	145.213	104.721	164.120
281.016	323.021	2	1	1	142.209	104.721	164.120
281.780	322.377	2	1	1	142.296	104.721	164.120
282.545	321.732	2	1	1	149.829	104.721	164.120
283.309	321.087	2	1	1	140.574	104.721	164.120
284.074	320.443	2	1	1	146.289	104.721	164.120
284.838	319.798	2	1	1	155.799	104.721	164.120
285.603	319.154	2	1	1	149.019	104.721	164.120
286.367	318.509	2	1	1	144.260	104.721	164.120
287.132	317.864	2	1	1	143.287	104.721	164.120
287.896	317.220	2	1	1	148.194	104.721	164.120
288.661	316.575	2	1	1	158.621	104.721	164.120
289.396	315.897	2	1	1	148.844	104.721	164.120
290.127	315.215	2	1	1	141.871	104.721	164.120
290.858	314.533	2	1	1	137.973	104.721	164.120
291.589	313.850	2	1	1	136.900	104.721	164.120
292.320	313.168	2	1	1	140.671	104.721	164.120
293.051	312.486	2	1	1	140.090	104.721	164.120
293.782	311.803	2	1	1	150.002	104.721	164.120
294.513	311.121	2	1	1	146.506	104.721	164.120
295.244	310.439	2	1	1	151.714	104.721	164.120
295.975	309.756	2	1	1	144.822	104.721	164.120
296.706	309.074	2	1	1	149.423	104.721	164.120
297.438	308.392	2	1	1	144.107	104.721	164.120
298.169	307.709	2	1	1	138.309	104.721	164.120
298.900	307.027	2	1	1	146.522	104.721	164.120
299.631	306.345	2	1	1	145.729	104.721	164.120
300.272	305.577	2	1	1	143.609	104.721	164.120
300.812	304.736	2	1	1	152.322	104.721	164.120
301.353	303.895	2	1	1	145.844	104.721	164.120
301.894	303.054	2	1	1	144.603	104.721	164.120
302.435	302.213	2	1	1	145.128	104.721	164.120
302.976	301.371	2	1	1	141.560	104.721	164.120
303.516	300.530	2	1	1	145.503	104.721	164.120
304.057	299.689	2	1	1	143.232	104.721	164.120
304.540	298.813	2	1	1	141.397	104.721	164.120
304.750	297.836	2	1	1	140.214	104.721	164.120
304.959	296.858	2	1	1	144.745	104.721	164.120
305.169	295.880	2	1	1	153.334	104.721	164.120
305.378	294.902	2	1	1	152.250	104.721	164.120
305.588	293.924	2	1	1	152.281	104.721	164.120
305.797	292.947	2	1	1	152.623	104.721	164.120
306.018	291.971	2	1	1	151.301	104.721	164.120
306.548	291.123	2	1	1	146.213	104.721	164.120
307.078	290.275	2	1	1	142.997	104.721	164.120
307.608	289.427	2	1	1	152.289	104.721	164.120
308.138	288.579	2	1	1	146.164	104.721	164.120
308.668	287.731	2	1	1	141.495	104.721	164.120
309.198	286.883	2	1	1	140.089	104.721	164.120
309.728	286.035	2	1	1	136.890	104.721	164.120
310.258	285.187	2	1	1	135.243	104.721	164.120
310.788	284.339	2	1	1	141.223	104.721	164.120
311.318	283.491	2	1	1	141.815	104.721	164.120
311.848	282.643	2	1	1	141.514	104.721	164.120
312.413	281.818	2	1	1	145.729	104.721	164.120
313.079	281.072	2	1	1	146.865	104.721	164.120
313.745	280.326	2	1	1	141.678	104.721	164.120
314.411	279.580	2	1	1	144.586	104.721	164.120
315.077	278.834	2	1	1	150.945	104.721	164.120
315.743	278.088	2	1	1	151.051	104.721	164.120
316.409	277.342	2	1	1	153.916	104.721	164.120
317.075	276.596	2	1	1	146.764	104.721	164.120
317.741	275.850	2	1	1	158.264	104.721	164.120
318.407	275.104	2	1	1	156.325	104.721	164.120
319.108	274.392	2	1	1	158.136	104.721	164.120
319.815	273.685	2	1	1	152.727	104.721	164.120
320.522	272.978	2	1	1	150.576	104.721	164.120
321.230	272.270	2	1	1	144.502	104.721	164.120
321.937	271.563	2	1	1	156.419	104.721	164.120
322.644	270.856	2	1	1	146.835	104.721	164.120
323.351	270.149	2	1	1	152.805	104.721	164.120
324.059	269.443	2	1	1	153.099	104.721	164.120
324.773	268.743	2	1	1	146.377	104.721	164.120
325.488	268.044	2	1	1	150.945	104.721	164.120
326.203	267.344	2	1	1	154.409	104.721	164.120
326.917	266.645	2	1	1	148.182	104.721	164.120
327.632	265.945	2	1	1	146.521	104.721	164.120
328.347	265.246	2	1	1	135.433	104.721	164.120
329.061	264.546	2	1	1	131.165	104.721	164.120
329.776	263.847	2	1	1	135.624	104.721	164.120
330.072	262.892	2	1	1	140.036	104.721	164.120
330.297	261.917	2	1	1	143.036	104.721	164.120
330.521	260.943	2	1	1	141.033	104.721	164.120
330.745	259.968	2	1	1	146.674	104.721	164.120
330.969	258.994	2	1	1	146.206	104.721	164.120
331.193	258.019	2	1	1	146.683	104.721	164.120
331.417	257.045	2	1	1	142.999	104.721	164.120
331.641	256.070	2	1	1	146.803	104.721	164.120
331.866	255.095	2	1	1	135.702	104.721	164.120
332.090	254.121	2	1	1	136.819	104.721	164.120
332.314	253.146	2	1	1	138.889	104.721	164.120
332.538	252.172	2	1	1	141.682	104.721	164.120
332.763	251.197	2	1	1	145.659	104.721	164.120
332.998	250.226	2	1	1	141.307	104.721	164.120
333.234	249.254	2	1	1	146.148	104.721	164.120
333.470	248.282	2	1	1	146.035	104.721	164.120
333.705	247.310	2	1	1	141.596	104.721	164.120
333.941	246.338	2	1	1	132.685	104.721	164.120
334.176	245.366	2	1	1	142.549	104.721	164.120
334.412	244.394	2	1	1	145.195	104.721	164.120
334.648	243.423	2	1	1	150.684	104.721	164.120
335.006	242.489	2	1	1	146.395	104.721	164.120
335.453	241.594	2	1	1	146.023	104.721	164.120
335.900	240.700	2	1	1	150.165	104.721	164.120
336.347	239.806	2	1	1	145.382	104.721	164.120
336.794	238.911	2	1	1	150.529	104.721	164.120
337.242	238.017	2	1	1	150.436	104.721	164.120
337.689	237.122	2	1	1	157.633	104.721	164.120
338.136	236.228	2	1	1	155.227	104.721	164.120
338.583	235.333	2	1	1	144.883	104.721	164.120
338.829	234.364	2	1	1	139.800	104.721	164.120
338.954	233.372	2	1	1	141.596	104.721	164.120
339.078	232.380	2	1	1	144.031	104.721	164.120
339.202	231.387	2	1	1	140.521	104.721	164.120
339.326	230.395	2	1	1	141.347	104.721	164.120
339.450	229.403	2	1	1	141.102	104.721	164.120
339.574	228.411	2	1	1	142.097	104.721	164.120
339.698	227.418	2	1	1	144.872	104.721	164.120
339.822	226.426	2	1	1	141.762	104.721	164.120
339.946	225.434	2	1	1	141.516	104.721	164.120
340.163	224.458	2	1	1	142.277	104.721	164.120
340.450	223.500	2	1	1	138.976	104.721	164.120
340.737	222.542	2	1	1	139.621	104.721	164.120
341.025	221.584	2	1	1	137.971	104.721	164.120
341.312	220.626	2	1	1	136.221	104.721	164.120
341.599	219.668	2	1	1	136.619	104.721	164.120
341.887	218.711	2	1	1	137.336	104.721	164.120
342.174	217.753	2	1	1	133.983	104.721	164.120
342.462	216.795	2	1	1	137.909	104.721	164.120
342.749	215.837	2	1	1	138.139	104.721	164.120
343.048	214.883	2	1	1	140.299	104.721	164.120
343.429	213.958	2	1	1	147.152	104.721	164.120
343.810	213.034	2	1	1	148.143	104.721	164.120
344.190	212.109	2	1	1	144.013	104.721	164.120
344.571	211.184	2	1	1	147.466	104.721	164.120
344.952	210.260	2	1	1	141.756	104.721	164.120
345.333	209.335	2	1	1	145.697	104.721	164.120
345.713	208.410	2	1	1	156.710	104.721	164.120
346.094	207.486	2	1	1	151.718	104.721	164.120
346.475	206.561	2	1	1	154.017	104.721	164.120
346.856	205.636	2	1	1	151.584	104.721	164.120
347.236	204.712	2	1	1	152.587	104.721	164.120
347.617	203.787	2	1	1	152.878	104.721	164.120
347.998	202.862	2	1	1	144.207	104.721	164.120
348.362	201.931	2	1	1	149.625	104.721	164.120
348.694	200.988	2	1	1	148.353	104.721	164.120
349.026	200.044	2	1	1	150.745	104.721	164.120
349.358	199.101	2	1	1	138.490	104.721	164.120
349.690	198.158	2	1	1	138.451	104.721	164.120
350.022	197.214	2	1	1	139.755	104.721	164.120
350.354	196.271	2	1	1	137.883	104.721	164.120
350.686	195.328	2	1	1	138.558	104.721	164.120
351.018	194.384	2	1	1	140.222	104.721	164.120
351.349	193.441	2	1	1	135.926	104.721	164.120
351.681	192.498	2	1	1	138.393	104.721	164.120
352.013	191.554	2	1	1	131.853	104.721	164.120
352.345	190.611	2	1	1	135.635	104.721	164.120
352.677	189.668	2	1	1	131.868	104.721	164.120
353.010	188.725	2	1	1	136.388	104.721	164.120
353.369	187.791	2	1	1	125.314	104.721	164.120
353.728	186.858	2	1	1	123.717	104.721	164.120
354.087	185.925	2	1	1	126.705	104.721	164.120
354.446	184.991	2	1	1	130.433	104.721	164.120
354.805	184.058	2	1	1	137.671	104.721	164.120
355.164	183.125	2	1	1	133.766	104.721	164.120
355.523	182.191	2	1	1	128.648	104.721	164.120
355.882	181.258	2	1	1	133.955	104.721	164.120
356.241	180.325	2	1	1	133.087	104.721	164.120
356.599	179.391	2	1	1	141.755	104.721	164.120
356.832	178.419	2	1	1	132.808	104.721	164.120
356.972	177.429	2	1	1	133.012	104.721	164.120
357.112	176.438	2	1	1	133.019	104.721	164.120
357.251	175.448	2	1	1	136.031	104.721	164.120
357.391	174.458	2	1	1	129.520	104.721	164.120
357.531	173.468	2	1	1	129.011	104.721	164.120
357.671	172.478	2	1	1	131.229	104.721	164.120
357.811	171.487	2	1	1	126.082	104.721	164.120
357.950	170.497	2	1	1	130.234	104.721	164.120
358.090	169.507	2	1	1	134.605	104.721	164.120
358.230	168.517	2	1	1	132.785	104.721	164.120
358.034	167.536	2	1	1	142.753	104.721	164.120
357.784	166.568	2	1	1	141.982	104.721	164.120
357.534	165.600	2	1	1	137.348	104.721	164.120
357.284	164.632	2	1	1	137.917	104.721	164.120
357.034	163.663	2	1	1	139.635	104.721	164.120
356.784	162.695	2	1	1	138.793	104.721	164.120
356.534	161.727	2	1	1	134.640	104.721	164.120
356.284	160.758	2	1	1	139.756	104.721	164.120
356.035	159.790	2	1	1	129.937	104.721	164.120
355.785	158.822	2	1	1	138.028	104.721	164.120
355.535	157.854	2	1	1	143.102	104.721	164.120
355.285	156.885	2	1	1	137.884	104.721	164.120
355.037	155.917	2	1	1	145.276	104.721	164.120
354.789	154.948	2	1	1	145.043	104.721	164.120
354.541	153.979	2	1	1	139.735	104.721	164.120
354.293	153.010	2	1	1	139.885	104.721	164.120
354.045	152.041	2	1	1	141.725	104.721	164.120
353.798	151.073	2	1	1	144.552	104.721	164.120
353.550	150.104	2	1	1	133.531	104.721	164.120
353.302	149.135	2	1	1	139.470	104.721	164.120
353.054	148.166	2	1	1	138.788	104.721	164.120
352.806	147.197	2	1	1	140.871	104.721	164.120
352.558	146.229	2	1	1	134.777	104.721	164.120
352.109	145.335	2	1	1	138.277	104.721	164.120
351.602	144.473	2	1	1	127.388	104.721	164.120
351.095	143.611	2	1	1	130.460	104.721	164.120
350.588	142.749	2	1	1	131.851	104.721	164.120
350.081	141.888	2	1	1	137.034	104.721	164.120
349.574	141.026	2	1	1	138.287	104.721	164.120
349.067	140.164	2	1	1	139.728	104.721	164.120
348.560	139.302	2	1	1	143.121	104.721	164.120
348.053	138.440	2	1	1	141.008	104.721	164.120
347.546	137.578	2	1	1	135.684	104.721	164.120
347.039	136.716	2	1	1	138.943	104.721	164.120
346.532	135.854	2	1	1	138.487	104.721	164.120
346.025	134.992	2	1	1	129.410	104.721	164.120
345.405	134.207	2	1	1	132.776	104.721	164.120
344.722	133.476	2	1	1	136.093	104.721	164.120
344.040	132.745	2	1	1	127.060	104.721	164.120
343.358	132.014	2	1	1	126.180	104.721	164.120
342.675	131.283	2	1	1	135.146	104.721	164.120
341.993	130.552	2	1	1	131.426	104.721	164.120
341.311	129.821	2	1	1	130.736	104.721	164.120
340.629	129.090	2	1	1	139.126	104.721	164.120
339.946	128.359	2	1	1	138.000	104.721	164.120
339.264	127.628	2	1	1	130.484	104.721	164.120
338.526	126.954	2	1	1	135.797	104.721	164.120
337.703	126.384	2	1	1	137.426	104.721	164.120
336.881	125.815	2	1	1	141.988	104.721	164.120
336.059	125.246	2	1	1	139.770	104.721	164.120
335.237	124.677	2	1	1	141.761	104.721	164.120
334.415	124.108	2	1	1	139.879	104.721	164.120
333.592	123.538	2	1	1	131.505	104.721	164.120
332.770	122.969	2	1	1	134.980	104.721	164.120
331.948	122.400	2	1	1	139.099	104.721	164.120
331.126	121.831	2	1	1	134.570	104.721	164.120
330.304	121.261	2	1	1	134.490	104.721	164.120
329.481	120.692	2	1	1	130.096	104.721	164.120
328.659	120.123	2	1	1	131.834	104.721	164.120
327.831	119.563	2	1	1	132.909	104.721	164.120
326.977	119.043	2	1	1	134.838	104.721	164.120
326.123	118.523	2	1	1	137.575	104.721	164.120
325.269	118.002	2	1	1	139.566	104.721	164.120
324.415	117.482	2	1	1	137.941	104.721	164.120
323.561	116.962	2	1	1	140.485	104.721	164.120
322.707	116.441	2	1	1	140.791	104.721	164.120
321.853	115.921	2	1	1	139.720	104.721	164.120
320.999	115.400	2	1	1	140.693	104.721	164.120
320.145	114.880	2	1	1	137.954	104.721	164.120
319.291	114.360	2	1	1	147.545	104.721	164.120
318.437	113.839	2	1	1	149.615	104.721	164.120
317.583	113.319	2	1	1	150.310	104.721	164.120
316.693	112.864	2	1	1	144.002	104.721	164.120
315.788	112.437	2	1	1	156.374	104.721	164.120
314.884	112.011	2	1	1	158.046	104.721	164.120
313.980	111.584	2	1	1	153.415	104.721	164.120
313.075	111.157	2	1	1	146.471	104.721	164.120
312.171	110.730	2	1	1	143.957	104.721	164.120
311.267	110.303	2	1	1	143.673	104.721	164.120
310.362	109.877	2	1	1	146.819	104.721	164.120
309.458	109.450	2	1	1	151.122	104.721	164.120
308.553	109.023	2	1	1	152.583	104.721	164.120
307.649	108.596	2	1	1	145.421	104.721	164.120
306.745	108.169	2	1	1	146.347	104.721	164.120
305.840	107.742	2	1	1	144.326	104.721	164.120
304.936	107.316	2	1	1	148.524	104.721	164.120
304.032	106.889	2	1	1	147.427	104.721	164.120
303.127	106.462	2	1	1	152.749	104.721	164.120
302.223	106.035	2	1	1	142.492	104.721	164.120
301.319	105.608	2	1	1	141.901	104.721	164.120
300.414	105.182	2	1	1	142.571	104.721	164.120
299.510	104.755	2	1	1	144.730	104.721	164.120
298.632	104.276	2	1	1	129.350	104.721	164.120
297.754	103.798	2	1	1	135.104	104.721	164.120
296.876	103.319	2	1	1	141.100	104.721	164.120
295.998	102.840	2	1	1	149.141	104.721	164.120
295.120	102.361	2	1	1	153.729	104.721	164.120
294.242	101.882	2	1	1	147.935	104.721	164.120
293.365	101.403	2	1	1	152.202	104.721	164.120
292.487	100.925	2	1	1	148.235	104.721	164.120
291.609	100.446	2	1	1	147.136	104.721	164.120
290.731	99.967	2	1	1	143.320	104.721	164.120
289.853	99.488	2	1	1	142.686	104.721	164.120
288.975	99.009	2	1	1	138.493	104.721	164.120
288.097	98.530	2	1	1	144.697	104.721	164.120
287.219	98.051	2	1	1	135.169	104.721	164.120
286.341	97.573	2	1	1	140.574	104.721	164.120
285.463	97.094	2	1	1	135.642	104.721	164.120
284.586	96.615	2	1	1	139.132	104.721	164.120
283.708	96.136	2	1	1	138.729	104.721	164.120
282.816	95.683	2	1	1	134.159	104.721	164.120
281.876	95.342	2	1	1	135.374	104.721	164.120
280.936	95.001	2	1	1	131.836	104.721	164.120
279.996	94.659	2	1	1	137.137	104.721	164.120
279.056	94.318	2	1	1	138.280	104.721	164.120
278.116	93.977	2	1	1	150.178	104.721	164.120
277.176	93.635	2	1	1	146.626	104.721	164.120
276.236	93.294	2	1	1	138.361	104.721	164.120
275.296	92.953	2	1	1	139.967	104.721	164.120
274.356	92.612	2	1	1	139.303	104.721	164.120
273.417	92.270	2	1	1	142.356	104.721	164.120
272.477	91.929	2	1	1	143.066	104.721	164.120
271.537	91.588	2	1	1	146.186	104.721	164.120
270.597	91.246	2	1	1	143.341	104.721	164.120
269.657	90.905	2	1	1	141.021	104.721	164.120
268.705	90.600	2	1	1	139.345	104.721	164.120
267.729	90.378	2	1	1	137.922	104.721	164.120
266.754	90.156	2	1	1	147.348	104.721	164.120
265.779	89.935	2	1	1	147.131	104.721	164.120
264.804	89.713	2	1	1	140.765	104.721	164.120
263.829	89.491	2	1	1	147.885	104.721	164.120
262.854	89.270	2	1	1	148.115	104.721	164.120
261.879	89.048	2	1	1	149.752	104.721	164.120
260.903	88.827	2	1	1	144.491	104.721	164.120
259.928	88.605	2	1	1	149.218	104.721	164.120
258.953	88.383	2	1	1	150.688	104.721	164.120
257.978	88.161	2	1	1	147.418	104.721	164.120
257.014	87.898	2	1	1	153.180	104.721	164.120
256.049	87.634	2	1	1	140.086	104.721	164.120
255.084	87.371	2	1	1	142.411	104.721	164.120
254.119	87.108	2	1	1	136.292	104.721	164.120
253.154	86.845	2	1	1	153.330	104.721	164.120
252.190	86.582	2	1	1	160.498	104.721	164.120
251.225	86.319	2	1	1	157.853	104.721	164.120
250.281	85.988	2	1	1	163.386	104.721	164.120
249.374	85.567	2	1	1	166.588	104.721	164.120
248.467	85.146	2	1	1	167.241	104.721	164.120
247.560	84.724	2	1	1	166.252	104.721	164.120
246.653	84.303	2	1	1	163.630	104.721	164.120
245.746	83.882	2	1	1	156.703	104.721	164.120
244.839	83.461	2	1	1	147.615	104.721	164.120
243.932	83.040	2	1	1	144.273	104.721	164.120
243.025	82.619	2	1	1	155.793	104.721	164.120
242.118	82.198	2	1	1	156.084	104.721	164.120
241.209	81.782	2	1	1	157.889	104.721	164.120
240.284	81.401	2	1	1	157.406	104.721	164.120
239.360	81.020	2	1	1	158.388	104.721	164.120
238.435	80.639	2	1	1	155.769	104.721	164.120
237.510	80.258	2	1	1	153.365	104.721	164.120
236.586	79.877	2	1	1	152.993	104.721	164.120
235.661	79.496	2	1	1	153.326	104.721	164.120
234.737	79.115	2	1	1	151.034	104.721	164.120
233.812	78.734	2	1	1	151.506	104.721	164.120
232.888	78.353	2	1	1	153.797	104.721	164.120
231.963	77.972	2	1	1	158.947	104.721	164.120
231.038	77.591	2	1	1	150.904	104.721	164.120
230.114	77.210	2	1	1	150.773	104.721	164.120
229.189	76.829	2	1	1	151.748	104.721	164.120
228.265	76.448	2	1	1	160.695	104.721	164.120
227.340	76.067	2	1	1	155.243	104.721	164.120
226.415	75.686	2	1	1	155.464	104.721	164.120
225.491	75.305	2	1	1	153.317	104.721	164.120
224.578	74.898	2	1	1	145.843	104.721	164.120
223.716	74.390	2	1	1	149.743	104.721	164.120
222.855	73.882	2	1	1	148.607	104.721	164.120
221.994	73.373	2	1	1	143.257	104.721	164.120
221.133	72.865	2	1	1	148.184	104.721	164.120
220.271	72.357	2	1	1	142.070	104.721	164.120
219.410	71.849	2	1	1	152.812	104.721	164.120
218.549	71.340	2	1	1	154.308	104.721	164.120
217.688	70.832	2	1	1	160.438	104.721	164.120
216.827	70.324	2	1	1	159.545	104.721	164.120
215.965	69.816	2	1	1	162.654	104.721	164.120
215.104	69.307	2	1	1	159.134	104.721	164.120
214.243	68.799	2	1	1	146.729	104.721	164.120
213.382	68.291	2	1	1	140.296	104.721	164.120
212.521	67.783	2	1	1	142.574	104.721	164.120
211.659	67.274	2	1	1	134.122	104.721	164.120
210.798	66.766	2	1	1	145.876	104.721	164.120
209.937	66.258	2	1	1	138.198	104.721	164.120
209.039	65.819	2	1	1	150.515	104.721	164.120
208.108	65.453	2	1	1	146.331	104.721	164.120
207.177	65.087	2	1	1	151.187	104.721	164.120
206.246	64.722	2	1	1	147.541	104.721	164.120
205.316	64.356	2	1	1	151.610	104.721	164.120
204.385	63.990	2	1	1	157.748	104.721	164.120
203.454	63.625	2	1	1	147.141	104.721	164.120
202.523	63.259	2	1	1	145.360	104.721	164.120
201.593	62.894	2	1	1	146.343	104.721	164.120
200.662	62.528	2	1	1	150.342	104.721	164.120
199.731	62.162	2	1	1	148.974	104.721	164.120
198.800	61.797	2	1	1	149.325	104.721	164.120
197.870	61.431	2	1	1	151.398	104.721	164.120
196.939	61.065	2	1	1	145.292	104.721	164.120
196.008	60.700	2	1	1	145.474	104.721	164.120
195.054	60.400	2	1	1	145.356	104.721	164.120
194.078	60.181	2	1	1	150.356	104.721	164.120
193.103	59.962	2	1	1	155.415	104.721	164.120
192.127	59.743	2	1	1	147.422	104.721	164.120
191.151	59.524	2	1	1	151.963	104.721	164.120
190.175	59.305	2	1	1	145.963	104.721	164.120
189.200	59.086	2	1	1	146.921	104.721	164.120
188.224	58.867	2	1	1	139.278	104.721	164.120
187.248	58.648	2	1	1	141.275	104.721	164.120
186.273	58.429	2	1	1	149.799	104.721	164.120
185.297	58.209	2	1	1	144.588	104.721	164.120
184.321	57.990	2	1	1	144.095	104.721	164.120
183.345	57.771	2	1	1	140.739	104.721	164.120
182.408	57.424	2	1	1	143.063	104.721	164.120
181.475	57.063	2	1	1	155.084	104.721	164.120
180.543	56.701	2	1	1	151.625	104.721	164.120
179.610	56.340	2	1	1	152.903	104.721	164.120
178.678	55.979	2	1	1	153.521	104.721	164.120
177.745	55.618	2	1	1	146.253	104.721	164.120
176.813	55.256	2	1	1	142.076	104.721	164.120
175.880	54.895	2	1	1	140.033	104.721	164.120
174.948	54.534	2	1	1	135.618	104.721	164.120
174.016	54.173	2	1	1	147.191	104.721	164.120
173.030	54.005	2	1	1	142.368	104.721	164.120
172.043	53.841	2	1	1	143.124	104.721	164.120
171.057	53.676	2	1	1	139.234	104.721	164.120
170.071	53.512	2	1	1	144.053	104.721	164.120
169.084	53.347	2	1	1	143.835	104.721	164.120
168.098	53.183	2	1	1	149.148	104.721	164.120
167.111	53.019	2	1	1	148.916	104.721	164.120
166.125	52.854	2	1	1	144.761	104.721	164.120
165.139	52.690	2	1	1	137.137	104.721	164.120
164.181	52.977	2	1	1	131.490	104.721	164.120
163.246	53.331	2	1	1	131.747	104.721	164.120
162.310	53.685	2	1	1	136.455	104.721	164.120
161.375	54.040	2	1	1	145.997	104.721	164.120
160.440	54.394	2	1	1	143.278	104.721	164.120
159.505	54.748	2	1	1	137.508	104.721	164.120
158.570	55.102	2	1	1	144.027	104.721	164.120
157.635	55.457	2	1	1	149.536	104.721	164.120
156.699	55.811	2	1	1	142.713	104.721	164.120
155.764	56.165	2	1	1	138.603	104.721	164.120
154.829	56.519	2	1	1	137.610	104.721	164.120
153.899	56.886	2	1	1	144.894	104.721	164.120
153.014	57.351	2	1	1	141.131	104.721	164.120
152.128	57.816	2	1	1	139.238	104.721	164.120
151.243	58.281	2	1	1	133.977	104.721	164.120
150.357	58.746	2	1	1	133.674	104.721	164.120
149.472	59.211	2	1	1	129.909	104.721	164.120
148.587	59.675	2	1	1	134.603	104.721	164.120
147.701	60.140	2	1	1	137.154	104.721	164.120
146.773	60.513	2	1	1	141.983	104.721	164.120
145.821	60.817	2	1	1	137.268	104.721	164.120
144.868	61.122	2	1	1	138.216	104.721	164.120
143.916	61.427	2	1	1	129.161	104.721	164.120
142.963	61.732	2	1	1	139.953	104.721	164.120
142.011	62.037	2	1	1	134.136	104.721	164.120
141.059	62.341	2	1	1	136.798	104.721	164.120
140.106	62.646	2	1	1	138.243	104.721	164.120
139.154	62.951	2	1	1	136.580	104.721	164.120
138.283	63.443	2	1	1	137.070	104.721	164.120
137.433	63.969	2	1	1	157.141	104.721	164.120
136.582	64.495	2	1	1	150.723	104.721	164.120
135.731	65.021	2	1	1	154.957	104.721	164.120
134.881	65.546	2	1	1	155.359	104.721	164.120
134.030	66.072	2	1	1	151.944	104.721	164.120
133.180	66.598	2	1	1	146.058	104.721	164.120
132.329	67.124	2	1	1	158.251	104.721	164.120
131.478	67.650	2	1	1	157.650	104.721	164.120
130.628	68.176	2	1	1	147.853	104.721	164.120
129.783	68.710	2	1	1	152.081	104.721	164.120
129.025	69.362	2	1	1	150.605	104.721	164.120
128.267	70.015	2	1	1	156.386	104.721	164.120
127.509	70.667	2	1	1	154.084	104.721	164.120
126.751	71.319	2	1	1	153.257	104.721	164.120
125.993	71.971	2	1	1	148.134	104.721	164.120
125.235	72.624	2	1	1	143.176	104.721	164.120
124.477	73.276	2	1	1	143.708	104.721	164.120
123.719	73.928	2	1	1	142.185	104.721	164.120
122.961	74.580	2	1	1	138.928	104.721	164.120
122.153	75.169	2	1	1	130.755	104.721	164.120
121.316	75.717	2	1	1	129.850	104.721	164.120
120.479	76.264	2	1	1	140.258	104.721	164.120
119.642	76.811	2	1	1	137.239	104.721	164.120
118.805	77.358	2	1	1	138.827	104.721	164.120
117.968	77.906	2	1	1	138.467	104.721	164.120
117.131	78.453	2	1	1	140.519	104.721	164.120
116.294	79.000	2	1	1	149.408	104.721	164.120
115.457	79.547	2	1	1	148.493	104.721	164.120
114.620	80.095	2	1	1	150.120	104.721	164.120
113.839	80.720	2	1	1	147.973	104.721	164.120
113.249	81.527	2	1	1	145.778	104.721	164.120
112.659	82.335	2	1	1	148.204	104.721	164.120
112.069	83.142	2	1	1	145.063	104.721	164.120
111.479	83.949	2	1	1	144.280	104.721	164.120
110.889	84.757	2	1	1	143.269	104.721	164.120
110.299	85.564	2	1	1	137.298	104.721	164.120
109.709	86.372	2	1	1	148.754	104.721	164.120
109.119	87.179	2	1	1	149.572	104.721	164.120
108.529	87.986	2	1	1	140.305	104.721	164.120
107.939	88.794	2	1	1	145.032	104.721	164.120
107.275	89.541	2	1	1	145.178	104.721	164.120
106.552	90.232	2	1	1	146.158	104.721	164.120
105.830	90.924	2	1	1	132.279	104.721	164.120
105.107	91.615	2	1	1	140.251	104.721	164.120
104.384	92.306	2	1	1	137.832	104.721	164.120
103.662	92.997	2	1	1	130.060	104.721	164.120
102.939	93.689	2	1	1	141.777	104.721	164.120
102.217	94.380	2	1	1	142.475	104.721	164.120
101.494	95.071	2	1	1	140.105	104.721	164.120
100.771	95.762	2	1	1	129.560	104.721	164.120
100.049	96.454	2	1	1	135.177	104.721	164.120
99.237	97.038	2	1	1	133.359	104.721	164.120
98.420	97.615	2	1	1	138.020	104.721	164.120
97.603	98.192	2	1	1	141.548	104.721	164.120
96.787	98.768	2	1	1	140.193	104.721	164.120
95.970	99.345	2	1	1	143.834	104.721	164.120
95.153	99.922	2	1	1	150.032	104.721	164.120
94.336	100.498	2	1	1	146.789	104.721	164.120
