X	Y	C	Z	T	Intensity	BG	MX
83.000	127.167	2	1	1	142.953	105.948	131.984
82.410	127.974	2	1	1	135.800	105.948	131.984
81.820	128.781	2	1	1	130.931	105.948	131.984
81.230	129.589	2	1	1	125.788	105.948	131.984
80.640	130.396	2	1	1	135.290	105.948	131.984
80.050	131.204	2	1	1	158.591	105.948	131.984
79.460	132.011	2	1	1	170.433	105.948	131.984
78.870	132.818	2	1	1	187.014	105.948	131.984
78.280	133.626	2	1	1	193.490	105.948	131.984
77.690	134.433	2	1	1	197.385	105.948	131.984
77.100	135.241	2	1	1	199.147	105.948	131.984
76.493	136.036	2	1	1	196.859	105.948	131.984
75.842	136.795	2	1	1	182.985	105.948	131.984
75.192	137.554	2	1	1	167.735	105.948	131.984
74.541	138.313	2	1	1	175.571	105.948	131.984
73.890	139.073	2	1	1	162.785	105.948	131.984
73.239	139.832	2	1	1	154.835	105.948	131.984
72.589	140.591	2	1	1	141.863	105.948	131.984
71.938	141.350	2	1	1	135.190	105.948	131.984
71.309	142.128	2	1	1	141.985	105.948	131.984
70.697	142.919	2	1	1	137.742	105.948	131.984
70.085	143.710	2	1	1	137.779	105.948	131.984
69.473	144.500	2	1	1	136.535	105.948	131.984
68.861	145.291	2	1	1	135.858	105.948	131.984
68.248	146.082	2	1	1	132.177	105.948	131.984
67.655	146.887	2	1	1	134.358	105.948	131.984
67.434	147.862	2	1	1	131.608	105.948	131.984
67.214	148.837	2	1	1	128.743	105.948	131.984
66.994	149.813	2	1	1	136.000	105.948	131.984
66.774	150.788	2	1	1	135.258	105.948	131.984
66.553	151.764	2	1	1	145.240	105.948	131.984
66.333	152.739	2	1	1	148.305	105.948	131.984
66.113	153.715	2	1	1	140.752	105.948	131.984
65.893	154.690	2	1	1	140.081	105.948	131.984
65.672	155.665	2	1	1	141.370	105.948	131.984
65.452	156.641	2	1	1	142.678	105.948	131.984
65.176	157.602	2	1	1	139.702	105.948	131.984
64.836	158.542	2	1	1	138.718	105.948	131.984
64.496	159.483	2	1	1	140.786	105.948	131.984
64.155	160.423	2	1	1	145.940	105.948	131.984
63.815	161.364	2	1	1	148.214	105.948	131.984
63.475	162.304	2	1	1	163.694	105.948	131.984
63.135	163.244	2	1	1	181.831	105.948	131.984
62.795	164.185	2	1	1	198.523	105.948	131.984
62.460	165.127	2	1	1	199.533	105.948	131.984
62.156	166.079	2	1	1	198.865	105.948	131.984
61.851	167.032	2	1	1	198.645	105.948	131.984
61.547	167.985	2	1	1	173.856	105.948	131.984
61.243	168.937	2	1	1	147.832	105.948	131.984
60.939	169.890	2	1	1	141.697	105.948	131.984
60.635	170.843	2	1	1	128.957	105.948	131.984
60.331	171.795	2	1	1	125.131	105.948	131.984
60.027	172.748	2	1	1	119.782	105.948	131.984
59.896	173.739	2	1	1	121.827	105.948	131.984
59.782	174.733	2	1	1	127.231	105.948	131.984
59.669	175.726	2	1	1	129.236	105.948	131.984
59.555	176.720	2	1	1	129.746	105.948	131.984
59.441	177.713	2	1	1	139.353	105.948	131.984
59.327	178.707	2	1	1	146.990	105.948	131.984
59.214	179.700	2	1	1	152.448	105.948	131.984
59.100	180.694	2	1	1	154.134	105.948	131.984
58.986	181.687	2	1	1	150.222	105.948	131.984
58.872	182.681	2	1	1	173.578	105.948	131.984
58.759	183.674	2	1	1	183.378	105.948	131.984
58.624	184.665	2	1	1	189.703	105.948	131.984
58.487	185.656	2	1	1	184.691	105.948	131.984
58.350	186.647	2	1	1	181.360	105.948	131.984
58.214	187.637	2	1	1	188.900	105.948	131.984
58.077	188.628	2	1	1	188.509	105.948	131.984
57.941	189.618	2	1	1	164.909	105.948	131.984
57.804	190.609	2	1	1	142.504	105.948	131.984
57.654	191.598	2	1	1	134.957	105.948	131.984
57.495	192.585	2	1	1	133.347	105.948	131.984
57.337	193.572	2	1	1	137.870	105.948	131.984
57.178	194.560	2	1	1	156.133	105.948	131.984
57.019	195.547	2	1	1	165.477	105.948	131.984
56.861	196.534	2	1	1	172.506	105.948	131.984
56.702	197.522	2	1	1	167.729	105.948	131.984
56.543	198.509	2	1	1	158.792	105.948	131.984
56.385	199.496	2	1	1	152.512	105.948	131.984
56.226	200.484	2	1	1	154.014	105.948	131.984
56.067	201.471	2	1	1	152.788	105.948	131.984
55.908	202.458	2	1	1	150.744	105.948	131.984
55.750	203.446	2	1	1	145.616	105.948	131.984
55.591	204.433	2	1	1	149.487	105.948	131.984
55.467	205.425	2	1	1	158.578	105.948	131.984
55.391	206.422	2	1	1	158.863	105.948	131.984
55.314	207.419	2	1	1	152.831	105.948	131.984
55.237	208.417	2	1	1	152.321	105.948	131.984
55.160	209.414	2	1	1	152.103	105.948	131.984
55.084	210.411	2	1	1	152.729	105.948	131.984
55.007	211.408	2	1	1	149.744	105.948	131.984
54.930	212.405	2	1	1	149.806	105.948	131.984
54.854	213.402	2	1	1	154.650	105.948	131.984
54.777	214.399	2	1	1	149.257	105.948	131.984
54.750	215.398	2	1	1	147.484	105.948	131.984
54.750	216.398	2	1	1	147.589	105.948	131.984
54.750	217.398	2	1	1	149.032	105.948	131.984
54.750	218.398	2	1	1	157.318	105.948	131.984
54.750	219.398	2	1	1	165.098	105.948	131.984
54.750	220.398	2	1	1	186.273	105.948	131.984
54.750	221.398	2	1	1	202.000	105.948	131.984
54.750	222.398	2	1	1	195.757	105.948	131.984
54.750	223.398	2	1	1	182.489	105.948	131.984
54.750	224.398	2	1	1	166.584	105.948	131.984
54.750	225.398	2	1	1	151.080	105.948	131.984
54.750	226.398	2	1	1	143.338	105.948	131.984
54.766	227.398	2	1	1	133.137	105.948	131.984
54.783	228.398	2	1	1	129.256	105.948	131.984
54.801	229.398	2	1	1	133.430	105.948	131.984
54.818	230.398	2	1	1	143.341	105.948	131.984
54.836	231.398	2	1	1	148.837	105.948	131.984
54.853	232.398	2	1	1	159.385	105.948	131.984
54.871	233.397	2	1	1	186.695	105.948	131.984
54.889	234.397	2	1	1	221.815	105.948	131.984
54.906	235.397	2	1	1	267.512	105.948	131.984
54.924	236.397	2	1	1	291.409	105.948	131.984
54.941	237.397	2	1	1	298.947	105.948	131.984
54.959	238.397	2	1	1	294.957	105.948	131.984
54.976	239.397	2	1	1	298.460	105.948	131.984
54.994	240.396	2	1	1	322.685	105.948	131.984
55.083	241.392	2	1	1	324.148	105.948	131.984
55.211	242.384	2	1	1	315.582	105.948	131.984
55.339	243.376	2	1	1	318.268	105.948	131.984
55.467	244.368	2	1	1	323.310	105.948	131.984
55.595	245.360	2	1	1	296.718	105.948	131.984
55.723	246.351	2	1	1	242.769	105.948	131.984
55.851	247.343	2	1	1	205.800	105.948	131.984
55.979	248.335	2	1	1	225.596	105.948	131.984
56.231	249.303	2	1	1	281.946	105.948	131.984
56.507	250.264	2	1	1	328.406	105.948	131.984
56.783	251.225	2	1	1	361.197	105.948	131.984
57.060	252.186	2	1	1	321.818	105.948	131.984
57.336	253.147	2	1	1	284.565	105.948	131.984
57.612	254.108	2	1	1	239.033	105.948	131.984
57.889	255.069	2	1	1	230.508	105.948	131.984
58.165	256.030	2	1	1	223.380	105.948	131.984
58.441	256.991	2	1	1	214.014	105.948	131.984
58.718	257.952	2	1	1	222.869	105.948	131.984
58.994	258.913	2	1	1	197.766	105.948	131.984
59.270	259.874	2	1	1	184.290	105.948	131.984
59.546	260.835	2	1	1	161.632	105.948	131.984
59.823	261.796	2	1	1	147.073	105.948	131.984
60.224	262.712	2	1	1	138.712	105.948	131.984
60.630	263.626	2	1	1	139.235	105.948	131.984
61.036	264.540	2	1	1	133.691	105.948	131.984
61.442	265.454	2	1	1	138.473	105.948	131.984
61.849	266.368	2	1	1	136.963	105.948	131.984
62.255	267.281	2	1	1	130.085	105.948	131.984
62.661	268.195	2	1	1	131.959	105.948	131.984
63.067	269.109	2	1	1	126.137	105.948	131.984
63.473	270.023	2	1	1	129.145	105.948	131.984
63.879	270.937	2	1	1	137.929	105.948	131.984
64.285	271.851	2	1	1	133.494	105.948	131.984
64.692	272.764	2	1	1	133.396	105.948	131.984
65.098	273.678	2	1	1	136.999	105.948	131.984
65.504	274.592	2	1	1	128.400	105.948	131.984
65.910	275.506	2	1	1	128.732	105.948	131.984
66.316	276.420	2	1	1	126.481	105.948	131.984
66.877	277.248	2	1	1	139.184	105.948	131.984
67.549	277.988	2	1	1	140.184	105.948	131.984
68.222	278.728	2	1	1	159.376	105.948	131.984
68.895	279.467	2	1	1	159.023	105.948	131.984
69.567	280.207	2	1	1	162.333	105.948	131.984
70.240	280.947	2	1	1	161.109	105.948	131.984
70.913	281.687	2	1	1	149.229	105.948	131.984
71.585	282.427	2	1	1	146.465	105.948	131.984
72.258	283.167	2	1	1	137.368	105.948	131.984
72.931	283.907	2	1	1	131.678	105.948	131.984
73.325	284.826	2	1	1	126.340	105.948	131.984
73.557	285.799	2	1	1	121.912	105.948	131.984
73.790	286.771	2	1	1	123.061	105.948	131.984
74.023	287.744	2	1	1	116.455	105.948	131.984
74.256	288.716	2	1	1	120.944	105.948	131.984
74.489	289.689	2	1	1	118.148	105.948	131.984
74.722	290.661	2	1	1	116.689	105.948	131.984
74.955	291.634	2	1	1	116.611	105.948	131.984
75.187	292.606	2	1	1	120.515	105.948	131.984
75.420	293.579	2	1	1	122.328	105.948	131.984
75.653	294.551	2	1	1	123.311	105.948	131.984
75.886	295.524	2	1	1	117.194	105.948	131.984
76.429	296.364	2	1	1	119.351	105.948	131.984
77.191	297.011	2	1	1	115.701	105.948	131.984
77.954	297.658	2	1	1	115.926	105.948	131.984
78.716	298.305	2	1	1	122.239	105.948	131.984
79.479	298.952	2	1	1	122.887	105.948	131.984
80.241	299.599	2	1	1	126.206	105.948	131.984
81.004	300.246	2	1	1	127.148	105.948	131.984
81.766	300.893	2	1	1	130.560	105.948	131.984
82.529	301.540	2	1	1	128.965	105.948	131.984
83.291	302.187	2	1	1	128.580	105.948	131.984
84.054	302.834	2	1	1	125.540	105.948	131.984
84.933	303.311	2	1	1	127.119	105.948	131.984
85.843	303.725	2	1	1	131.268	105.948	131.984
86.753	304.140	2	1	1	125.105	105.948	131.984
87.663	304.554	2	1	1	126.297	105.948	131.984
88.573	304.969	2	1	1	127.365	105.948	131.984
89.483	305.383	2	1	1	118.524	105.948	131.984
90.393	305.798	2	1	1	121.132	105.948	131.984
91.303	306.212	2	1	1	115.014	105.948	131.984
92.213	306.627	2	1	1	120.687	105.948	131.984
93.096	307.097	2	1	1	116.223	105.948	131.984
93.948	307.620	2	1	1	116.074	105.948	131.984
94.800	308.143	2	1	1	122.214	105.948	131.984
95.653	308.666	2	1	1	118.793	105.948	131.984
96.505	309.189	2	1	1	119.440	105.948	131.984
97.357	309.712	2	1	1	123.557	105.948	131.984
98.210	310.235	2	1	1	123.799	105.948	131.984
99.062	310.758	2	1	1	122.166	105.948	131.984
99.914	311.281	2	1	1	124.869	105.948	131.984
100.726	311.865	2	1	1	127.482	105.948	131.984
101.533	312.455	2	1	1	122.061	105.948	131.984
102.340	313.046	2	1	1	129.676	105.948	131.984
103.147	313.636	2	1	1	133.619	105.948	131.984
103.954	314.227	2	1	1	123.285	105.948	131.984
104.761	314.817	2	1	1	124.831	105.948	131.984
105.568	315.408	2	1	1	123.792	105.948	131.984
106.375	315.998	2	1	1	128.977	105.948	131.984
107.176	316.598	2	1	1	129.519	105.948	131.984
107.968	317.208	2	1	1	130.157	105.948	131.984
108.759	317.819	2	1	1	132.025	105.948	131.984
109.551	318.430	2	1	1	125.287	105.948	131.984
110.343	319.041	2	1	1	123.847	105.948	131.984
111.135	319.652	2	1	1	121.675	105.948	131.984
111.927	320.262	2	1	1	124.151	105.948	131.984
112.732	320.856	2	1	1	123.356	105.948	131.984
113.678	321.179	2	1	1	130.808	105.948	131.984
114.624	321.502	2	1	1	127.123	105.948	131.984
115.571	321.825	2	1	1	123.587	105.948	131.984
116.517	322.148	2	1	1	129.608	105.948	131.984
117.463	322.471	2	1	1	132.325	105.948	131.984
118.410	322.794	2	1	1	127.096	105.948	131.984
119.356	323.118	2	1	1	127.553	105.948	131.984
120.333	323.330	2	1	1	138.072	105.948	131.984
121.315	323.523	2	1	1	141.508	105.948	131.984
122.296	323.716	2	1	1	138.063	105.948	131.984
123.277	323.909	2	1	1	138.139	105.948	131.984
124.258	324.101	2	1	1	138.761	105.948	131.984
125.240	324.294	2	1	1	133.966	105.948	131.984
126.221	324.487	2	1	1	127.488	105.948	131.984
127.202	324.680	2	1	1	134.092	105.948	131.984
128.183	324.872	2	1	1	127.912	105.948	131.984
129.124	325.210	2	1	1	128.163	105.948	131.984
129.935	325.796	2	1	1	124.485	105.948	131.984
130.746	326.381	2	1	1	118.733	105.948	131.984
131.556	326.967	2	1	1	128.474	105.948	131.984
132.367	327.552	2	1	1	127.818	105.948	131.984
133.178	328.138	2	1	1	133.077	105.948	131.984
133.989	328.723	2	1	1	137.128	105.948	131.984
134.799	329.309	2	1	1	140.840	105.948	131.984
135.106	330.260	2	1	1	146.869	105.948	131.984
135.388	331.220	2	1	1	143.923	105.948	131.984
135.696	332.171	2	1	1	145.746	105.948	131.984
136.683	332.331	2	1	1	147.368	105.948	131.984
137.670	332.492	2	1	1	150.566	105.948	131.984
138.657	332.652	2	1	1	149.648	105.948	131.984
139.644	332.812	2	1	1	146.829	105.948	131.984
140.631	332.972	2	1	1	143.724	105.948	131.984
141.618	333.132	2	1	1	143.344	105.948	131.984
142.616	333.059	2	1	1	139.913	105.948	131.984
143.606	332.923	2	1	1	130.356	105.948	131.984
144.597	332.787	2	1	1	131.445	105.948	131.984
145.588	332.651	2	1	1	131.568	105.948	131.984
146.578	332.515	2	1	1	133.250	105.948	131.984
147.569	332.379	2	1	1	144.969	105.948	131.984
148.560	332.243	2	1	1	148.295	105.948	131.984
149.551	332.107	2	1	1	142.447	105.948	131.984
150.543	331.985	2	1	1	140.042	105.948	131.984
151.540	331.913	2	1	1	137.280	105.948	131.984
152.538	331.840	2	1	1	131.421	105.948	131.984
153.535	331.768	2	1	1	131.127	105.948	131.984
154.533	331.696	2	1	1	139.154	105.948	131.984
155.530	331.623	2	1	1	131.082	105.948	131.984
156.527	331.551	2	1	1	126.100	105.948	131.984
157.525	331.479	2	1	1	124.857	105.948	131.984
158.522	331.407	2	1	1	122.773	105.948	131.984
159.519	331.334	2	1	1	123.407	105.948	131.984
160.517	331.262	2	1	1	129.187	105.948	131.984
161.514	331.190	2	1	1	137.275	105.948	131.984
162.495	330.994	2	1	1	137.563	105.948	131.984
163.463	330.742	2	1	1	134.089	105.948	131.984
164.430	330.489	2	1	1	128.882	105.948	131.984
165.398	330.237	2	1	1	128.234	105.948	131.984
166.123	329.548	2	1	1	132.126	105.948	131.984
166.716	328.743	2	1	1	153.363	105.948	131.984
167.309	327.938	2	1	1	166.702	105.948	131.984
167.902	327.133	2	1	1	163.295	105.948	131.984
168.720	326.557	2	1	1	163.215	105.948	131.984
169.571	326.033	2	1	1	147.873	105.948	131.984
170.423	325.509	2	1	1	146.251	105.948	131.984
171.275	324.985	2	1	1	147.188	105.948	131.984
172.126	324.461	2	1	1	142.728	105.948	131.984
173.122	324.555	2	1	1	147.489	105.948	131.984
174.085	324.826	2	1	1	147.818	105.948	131.984
175.047	325.097	2	1	1	149.088	105.948	131.984
176.010	325.367	2	1	1	142.445	105.948	131.984
176.973	325.638	2	1	1	145.568	105.948	131.984
177.951	325.843	2	1	1	156.570	105.948	131.984
178.951	325.878	2	1	1	161.797	105.948	131.984
179.950	325.912	2	1	1	176.036	105.948	131.984
180.950	325.947	2	1	1	165.894	105.948	131.984
181.949	325.981	2	1	1	162.131	105.948	131.984
182.945	326.068	2	1	1	149.005	105.948	131.984
183.934	326.218	2	1	1	138.191	105.948	131.984
184.922	326.369	2	1	1	132.295	105.948	131.984
185.911	326.519	2	1	1	134.969	105.948	131.984
186.900	326.670	2	1	1	139.212	105.948	131.984
187.888	326.820	2	1	1	135.685	105.948	131.984
188.877	326.970	2	1	1	156.058	105.948	131.984
189.866	327.121	2	1	1	140.726	105.948	131.984
190.838	326.886	2	1	1	146.715	105.948	131.984
191.760	326.500	2	1	1	159.439	105.948	131.984
192.682	326.114	2	1	1	179.070	105.948	131.984
193.605	325.727	2	1	1	173.609	105.948	131.984
194.527	325.341	2	1	1	161.358	105.948	131.984
195.450	324.955	2	1	1	151.024	105.948	131.984
196.372	324.569	2	1	1	142.006	105.948	131.984
197.295	324.183	2	1	1	132.665	105.948	131.984
198.286	324.049	2	1	1	133.630	105.948	131.984
199.278	323.926	2	1	1	134.734	105.948	131.984
200.270	323.803	2	1	1	128.756	105.948	131.984
201.263	323.680	2	1	1	137.532	105.948	131.984
202.255	323.557	2	1	1	139.105	105.948	131.984
203.248	323.434	2	1	1	134.616	105.948	131.984
204.240	323.311	2	1	1	136.687	105.948	131.984
205.232	323.188	2	1	1	138.684	105.948	131.984
206.225	323.065	2	1	1	133.895	105.948	131.984
207.223	323.000	2	1	1	132.112	105.948	131.984
208.223	323.000	2	1	1	130.693	105.948	131.984
209.223	323.000	2	1	1	131.999	105.948	131.984
210.223	323.000	2	1	1	137.348	105.948	131.984
211.223	323.000	2	1	1	140.347	105.948	131.984
212.223	323.000	2	1	1	147.297	105.948	131.984
213.223	323.000	2	1	1	150.860	105.948	131.984
214.223	323.000	2	1	1	162.428	105.948	131.984
215.223	323.000	2	1	1	188.155	105.948	131.984
216.223	323.000	2	1	1	186.621	105.948	131.984
217.223	323.000	2	1	1	192.095	105.948	131.984
218.223	323.000	2	1	1	184.605	105.948	131.984
219.217	323.104	2	1	1	162.231	105.948	131.984
220.194	323.321	2	1	1	149.955	105.948	131.984
221.170	323.538	2	1	1	136.782	105.948	131.984
222.146	323.755	2	1	1	133.265	105.948	131.984
223.122	323.972	2	1	1	140.997	105.948	131.984
224.098	324.189	2	1	1	145.344	105.948	131.984
225.074	324.405	2	1	1	148.966	105.948	131.984
226.051	324.622	2	1	1	159.155	105.948	131.984
227.027	324.839	2	1	1	158.721	105.948	131.984
228.003	325.056	2	1	1	154.494	105.948	131.984
228.979	325.273	2	1	1	152.324	105.948	131.984
229.955	325.490	2	1	1	146.928	105.948	131.984
230.945	325.346	2	1	1	136.897	105.948	131.984
231.932	325.185	2	1	1	134.364	105.948	131.984
232.919	325.023	2	1	1	134.144	105.948	131.984
233.906	324.862	2	1	1	131.560	105.948	131.984
234.893	324.701	2	1	1	126.196	105.948	131.984
235.880	324.540	2	1	1	136.476	105.948	131.984
236.867	324.379	2	1	1	135.874	105.948	131.984
237.853	324.218	2	1	1	136.050	105.948	131.984
238.840	324.057	2	1	1	133.401	105.948	131.984
239.827	323.896	2	1	1	131.616	105.948	131.984
240.814	323.734	2	1	1	138.204	105.948	131.984
241.801	323.573	2	1	1	141.283	105.948	131.984
242.798	323.650	2	1	1	143.051	105.948	131.984
243.763	323.913	2	1	1	141.910	105.948	131.984
244.728	324.176	2	1	1	146.979	105.948	131.984
245.693	324.439	2	1	1	140.186	105.948	131.984
246.657	324.702	2	1	1	135.183	105.948	131.984
247.622	324.965	2	1	1	135.063	105.948	131.984
248.621	325.000	2	1	1	135.940	105.948	131.984
249.621	325.000	2	1	1	136.347	105.948	131.984
250.621	325.000	2	1	1	133.543	105.948	131.984
251.621	325.000	2	1	1	129.707	105.948	131.984
252.621	325.000	2	1	1	128.872	105.948	131.984
253.621	325.000	2	1	1	129.172	105.948	131.984
254.614	324.882	2	1	1	130.208	105.948	131.984
255.565	324.572	2	1	1	130.517	105.948	131.984
256.517	324.263	2	1	1	132.042	105.948	131.984
257.468	323.954	2	1	1	140.268	105.948	131.984
258.419	323.645	2	1	1	132.765	105.948	131.984
259.370	323.336	2	1	1	131.677	105.948	131.984
260.321	323.027	2	1	1	127.696	105.948	131.984
261.272	322.718	2	1	1	126.377	105.948	131.984
262.223	322.409	2	1	1	131.948	105.948	131.984
263.174	322.100	2	1	1	135.032	105.948	131.984
264.125	321.791	2	1	1	140.304	105.948	131.984
265.056	321.427	2	1	1	137.243	105.948	131.984
265.985	321.056	2	1	1	134.206	105.948	131.984
266.913	320.685	2	1	1	144.662	105.948	131.984
267.842	320.313	2	1	1	147.105	105.948	131.984
268.770	319.942	2	1	1	138.218	105.948	131.984
269.699	319.570	2	1	1	140.889	105.948	131.984
270.627	319.199	2	1	1	148.618	105.948	131.984
271.556	318.828	2	1	1	140.437	105.948	131.984
272.550	318.721	2	1	1	138.709	105.948	131.984
273.549	318.686	2	1	1	136.445	105.948	131.984
274.549	318.650	2	1	1	132.181	105.948	131.984
275.548	318.614	2	1	1	132.033	105.948	131.984
276.548	318.579	2	1	1	133.283	105.948	131.984
277.547	318.543	2	1	1	130.059	105.948	131.984
278.546	318.507	2	1	1	131.363	105.948	131.984
279.330	317.886	2	1	1	137.632	105.948	131.984
280.017	317.159	2	1	1	133.854	105.948	131.984
280.703	316.432	2	1	1	131.173	105.948	131.984
281.390	315.705	2	1	1	134.549	105.948	131.984
282.076	314.978	2	1	1	131.927	105.948	131.984
282.763	314.251	2	1	1	128.761	105.948	131.984
283.555	313.641	2	1	1	132.990	105.948	131.984
284.395	313.097	2	1	1	125.545	105.948	131.984
285.234	312.554	2	1	1	126.765	105.948	131.984
286.074	312.011	2	1	1	124.056	105.948	131.984
286.914	311.468	2	1	1	127.137	105.948	131.984
287.749	310.918	2	1	1	124.735	105.948	131.984
288.581	310.363	2	1	1	125.299	105.948	131.984
289.413	309.808	2	1	1	133.272	105.948	131.984
290.245	309.253	2	1	1	133.270	105.948	131.984
290.576	308.310	2	1	1	128.461	105.948	131.984
290.504	307.312	2	1	1	130.052	105.948	131.984
290.907	306.397	2	1	1	137.696	105.948	131.984
291.338	305.495	2	1	1	141.636	105.948	131.984
291.769	304.592	2	1	1	152.504	105.948	131.984
292.199	303.690	2	1	1	156.999	105.948	131.984
292.630	302.787	2	1	1	148.900	105.948	131.984
293.061	301.885	2	1	1	139.537	105.948	131.984
293.788	301.198	2	1	1	134.595	105.948	131.984
294.556	300.558	2	1	1	134.983	105.948	131.984
295.324	299.917	2	1	1	136.338	105.948	131.984
296.092	299.277	2	1	1	129.083	105.948	131.984
296.861	298.637	2	1	1	131.168	105.948	131.984
297.629	297.997	2	1	1	127.888	105.948	131.984
298.395	297.354	2	1	1	129.699	105.948	131.984
299.091	296.636	2	1	1	136.070	105.948	131.984
299.787	295.918	2	1	1	134.902	105.948	131.984
300.482	295.200	2	1	1	134.536	105.948	131.984
301.178	294.481	2	1	1	135.669	105.948	131.984
301.874	293.763	2	1	1	135.619	105.948	131.984
302.688	293.182	2	1	1	143.156	105.948	131.984
303.603	292.780	2	1	1	144.015	105.948	131.984
304.519	292.377	2	1	1	146.379	105.948	131.984
305.443	291.995	2	1	1	150.030	105.948	131.984
306.441	291.927	2	1	1	149.588	105.948	131.984
307.438	291.859	2	1	1	148.549	105.948	131.984
308.436	291.791	2	1	1	145.066	105.948	131.984
309.434	291.723	2	1	1	148.796	105.948	131.984
310.431	291.655	2	1	1	154.761	105.948	131.984
311.339	291.235	2	1	1	168.762	105.948	131.984
312.104	290.590	2	1	1	167.250	105.948	131.984
312.868	289.946	2	1	1	167.156	105.948	131.984
313.633	289.302	2	1	1	164.969	105.948	131.984
314.398	288.658	2	1	1	165.369	105.948	131.984
315.163	288.014	2	1	1	159.600	105.948	131.984
315.882	287.318	2	1	1	152.131	105.948	131.984
316.524	286.552	2	1	1	150.385	105.948	131.984
317.166	285.785	2	1	1	139.724	105.948	131.984
317.807	285.018	2	1	1	132.832	105.948	131.984
318.449	284.251	2	1	1	131.467	105.948	131.984
319.091	283.485	2	1	1	134.396	105.948	131.984
319.733	282.718	2	1	1	133.114	105.948	131.984
320.372	281.948	2	1	1	138.818	105.948	131.984
321.005	281.174	2	1	1	147.292	105.948	131.984
321.638	280.400	2	1	1	150.682	105.948	131.984
322.272	279.626	2	1	1	136.483	105.948	131.984
322.905	278.852	2	1	1	142.246	105.948	131.984
323.538	278.078	2	1	1	151.228	105.948	131.984
324.171	277.305	2	1	1	170.337	105.948	131.984
324.837	276.558	2	1	1	176.893	105.948	131.984
325.578	275.887	2	1	1	156.812	105.948	131.984
326.319	275.215	2	1	1	153.664	105.948	131.984
327.060	274.544	2	1	1	138.897	105.948	131.984
327.801	273.872	2	1	1	134.049	105.948	131.984
328.542	273.201	2	1	1	129.376	105.948	131.984
329.142	272.401	2	1	1	131.635	105.948	131.984
329.723	271.587	2	1	1	129.708	105.948	131.984
330.305	270.773	2	1	1	136.581	105.948	131.984
330.886	269.960	2	1	1	140.046	105.948	131.984
331.354	269.076	2	1	1	140.896	105.948	131.984
331.738	268.153	2	1	1	140.454	105.948	131.984
332.123	267.230	2	1	1	131.147	105.948	131.984
332.508	266.307	2	1	1	130.076	105.948	131.984
332.892	265.384	2	1	1	120.792	105.948	131.984
333.415	264.531	2	1	1	121.750	105.948	131.984
333.989	263.712	2	1	1	125.966	105.948	131.984
334.562	262.893	2	1	1	138.297	105.948	131.984
335.136	262.074	2	1	1	142.190	105.948	131.984
335.726	261.266	2	1	1	146.880	105.948	131.984
336.406	260.533	2	1	1	135.420	105.948	131.984
337.085	259.799	2	1	1	141.139	105.948	131.984
337.765	259.066	2	1	1	148.744	105.948	131.984
338.445	258.333	2	1	1	145.923	105.948	131.984
339.125	257.599	2	1	1	145.904	105.948	131.984
339.804	256.866	2	1	1	145.830	105.948	131.984
340.499	256.146	2	1	1	139.016	105.948	131.984
341.267	255.506	2	1	1	141.858	105.948	131.984
342.036	254.866	2	1	1	142.505	105.948	131.984
342.804	254.226	2	1	1	140.159	105.948	131.984
343.572	253.586	2	1	1	142.292	105.948	131.984
344.340	252.946	2	1	1	145.183	105.948	131.984
345.109	252.305	2	1	1	135.557	105.948	131.984
345.814	251.596	2	1	1	131.054	105.948	131.984
346.374	250.768	2	1	1	134.821	105.948	131.984
346.935	249.940	2	1	1	135.633	105.948	131.984
347.495	249.112	2	1	1	138.951	105.948	131.984
348.056	248.284	2	1	1	146.781	105.948	131.984
348.616	247.456	2	1	1	165.402	105.948	131.984
349.177	246.628	2	1	1	162.226	105.948	131.984
349.738	245.800	2	1	1	161.441	105.948	131.984
350.298	244.971	2	1	1	157.244	105.948	131.984
350.859	244.143	2	1	1	152.251	105.948	131.984
351.204	243.205	2	1	1	140.051	105.948	131.984
351.348	242.215	2	1	1	145.339	105.948	131.984
351.491	241.226	2	1	1	143.088	105.948	131.984
351.635	240.236	2	1	1	149.006	105.948	131.984
351.779	239.246	2	1	1	151.045	105.948	131.984
351.922	238.257	2	1	1	152.106	105.948	131.984
352.066	237.267	2	1	1	170.365	105.948	131.984
352.210	236.277	2	1	1	181.638	105.948	131.984
352.136	235.280	2	1	1	183.641	105.948	131.984
351.980	234.292	2	1	1	172.451	105.948	131.984
351.824	233.305	2	1	1	172.051	105.948	131.984
351.668	232.317	2	1	1	168.763	105.948	131.984
351.512	231.329	2	1	1	152.412	105.948	131.984
351.357	230.341	2	1	1	140.444	105.948	131.984
351.201	229.354	2	1	1	135.013	105.948	131.984
351.045	228.366	2	1	1	133.841	105.948	131.984
350.889	227.378	2	1	1	136.616	105.948	131.984
350.722	226.392	2	1	1	139.217	105.948	131.984
350.468	225.425	2	1	1	145.849	105.948	131.984
350.213	224.458	2	1	1	145.311	105.948	131.984
349.959	223.491	2	1	1	155.481	105.948	131.984
349.705	222.523	2	1	1	147.605	105.948	131.984
349.451	221.556	2	1	1	139.408	105.948	131.984
349.197	220.589	2	1	1	129.130	105.948	131.984
348.943	219.622	2	1	1	131.821	105.948	131.984
348.689	218.655	2	1	1	128.519	105.948	131.984
348.435	217.687	2	1	1	129.213	105.948	131.984
348.181	216.720	2	1	1	130.298	105.948	131.984
347.927	215.753	2	1	1	136.582	105.948	131.984
347.673	214.786	2	1	1	134.983	105.948	131.984
347.418	213.819	2	1	1	135.588	105.948	131.984
347.164	212.852	2	1	1	138.213	105.948	131.984
346.910	211.884	2	1	1	148.393	105.948	131.984
346.599	210.934	2	1	1	159.388	105.948	131.984
346.278	209.987	2	1	1	160.571	105.948	131.984
345.958	209.040	2	1	1	141.485	105.948	131.984
345.637	208.092	2	1	1	133.870	105.948	131.984
345.316	207.145	2	1	1	144.949	105.948	131.984
344.996	206.198	2	1	1	136.699	105.948	131.984
344.675	205.251	2	1	1	134.145	105.948	131.984
344.355	204.304	2	1	1	141.939	105.948	131.984
344.050	203.351	2	1	1	138.483	105.948	131.984
343.785	202.387	2	1	1	138.731	105.948	131.984
343.521	201.422	2	1	1	139.111	105.948	131.984
343.257	200.458	2	1	1	139.025	105.948	131.984
342.992	199.494	2	1	1	144.425	105.948	131.984
342.728	198.529	2	1	1	163.695	105.948	131.984
342.463	197.565	2	1	1	191.354	105.948	131.984
342.199	196.600	2	1	1	214.742	105.948	131.984
341.961	195.629	2	1	1	236.487	105.948	131.984
341.804	194.642	2	1	1	230.804	105.948	131.984
341.647	193.654	2	1	1	218.682	105.948	131.984
341.490	192.666	2	1	1	202.987	105.948	131.984
341.332	191.679	2	1	1	191.964	105.948	131.984
341.175	190.691	2	1	1	187.304	105.948	131.984
341.093	189.695	2	1	1	183.687	105.948	131.984
341.047	188.696	2	1	1	197.717	105.948	131.984
341.000	187.697	2	1	1	177.060	105.948	131.984
340.954	186.698	2	1	1	164.215	105.948	131.984
340.908	185.699	2	1	1	154.664	105.948	131.984
340.910	184.699	2	1	1	155.817	105.948	131.984
341.024	183.705	2	1	1	167.061	105.948	131.984
341.139	182.712	2	1	1	159.480	105.948	131.984
341.242	181.717	2	1	1	165.084	105.948	131.984
340.999	180.747	2	1	1	165.763	105.948	131.984
340.757	179.777	2	1	1	166.474	105.948	131.984
340.455	178.824	2	1	1	164.342	105.948	131.984
340.083	177.895	2	1	1	169.617	105.948	131.984
339.712	176.967	2	1	1	180.268	105.948	131.984
339.371	176.027	2	1	1	183.109	105.948	131.984
339.336	175.027	2	1	1	180.449	105.948	131.984
339.300	174.028	2	1	1	164.496	105.948	131.984
339.264	173.028	2	1	1	170.058	105.948	131.984
339.229	172.029	2	1	1	155.264	105.948	131.984
339.193	171.030	2	1	1	155.060	105.948	131.984
339.157	170.030	2	1	1	154.585	105.948	131.984
339.111	169.031	2	1	1	154.662	105.948	131.984
338.965	168.042	2	1	1	157.643	105.948	131.984
338.818	167.053	2	1	1	151.035	105.948	131.984
338.672	166.064	2	1	1	153.972	105.948	131.984
338.525	165.075	2	1	1	157.135	105.948	131.984
338.378	164.085	2	1	1	152.975	105.948	131.984
338.232	163.096	2	1	1	149.787	105.948	131.984
338.085	162.107	2	1	1	154.173	105.948	131.984
337.939	161.118	2	1	1	160.281	105.948	131.984
337.792	160.129	2	1	1	168.828	105.948	131.984
337.646	159.139	2	1	1	166.213	105.948	131.984
337.474	158.154	2	1	1	175.027	105.948	131.984
337.298	157.170	2	1	1	185.431	105.948	131.984
337.122	156.185	2	1	1	178.620	105.948	131.984
336.947	155.201	2	1	1	181.904	105.948	131.984
336.771	154.217	2	1	1	178.652	105.948	131.984
336.595	153.232	2	1	1	158.430	105.948	131.984
336.419	152.248	2	1	1	144.029	105.948	131.984
336.246	151.263	2	1	1	136.307	105.948	131.984
336.074	150.278	2	1	1	136.469	105.948	131.984
335.902	149.293	2	1	1	133.515	105.948	131.984
335.730	148.307	2	1	1	135.996	105.948	131.984
335.558	147.322	2	1	1	139.577	105.948	131.984
335.386	146.337	2	1	1	143.422	105.948	131.984
335.214	145.352	2	1	1	144.245	105.948	131.984
335.042	144.367	2	1	1	143.059	105.948	131.984
334.870	143.382	2	1	1	138.060	105.948	131.984
334.698	142.397	2	1	1	139.322	105.948	131.984
334.526	141.412	2	1	1	141.669	105.948	131.984
334.354	140.427	2	1	1	148.649	105.948	131.984
334.182	139.442	2	1	1	150.901	105.948	131.984
334.010	138.457	2	1	1	145.672	105.948	131.984
333.838	137.471	2	1	1	147.760	105.948	131.984
333.666	136.486	2	1	1	141.472	105.948	131.984
333.535	135.495	2	1	1	137.610	105.948	131.984
333.416	134.502	2	1	1	144.192	105.948	131.984
333.298	133.509	2	1	1	143.990	105.948	131.984
333.179	132.516	2	1	1	143.883	105.948	131.984
333.061	131.523	2	1	1	148.603	105.948	131.984
332.942	130.530	2	1	1	147.162	105.948	131.984
332.823	129.537	2	1	1	141.661	105.948	131.984
332.705	128.544	2	1	1	149.051	105.948	131.984
332.557	127.555	2	1	1	153.193	105.948	131.984
332.349	126.577	2	1	1	150.639	105.948	131.984
332.142	125.599	2	1	1	137.310	105.948	131.984
331.934	124.621	2	1	1	127.320	105.948	131.984
331.726	123.643	2	1	1	130.565	105.948	131.984
331.518	122.664	2	1	1	128.833	105.948	131.984
331.311	121.686	2	1	1	133.792	105.948	131.984
331.103	120.708	2	1	1	138.953	105.948	131.984
330.895	119.730	2	1	1	149.311	105.948	131.984
330.687	118.752	2	1	1	143.233	105.948	131.984
330.480	117.774	2	1	1	145.180	105.948	131.984
330.272	116.795	2	1	1	137.616	105.948	131.984
330.064	115.817	2	1	1	136.866	105.948	131.984
329.856	114.839	2	1	1	127.245	105.948	131.984
329.649	113.861	2	1	1	135.447	105.948	131.984
329.155	112.991	2	1	1	135.987	105.948	131.984
328.630	112.140	2	1	1	142.083	105.948	131.984
328.104	111.290	2	1	1	139.042	105.948	131.984
327.578	110.439	2	1	1	134.912	105.948	131.984
327.052	109.589	2	1	1	133.154	105.948	131.984
326.526	108.738	2	1	1	130.475	105.948	131.984
326.000	107.888	2	1	1	136.317	105.948	131.984
325.474	107.037	2	1	1	133.608	105.948	131.984
324.948	106.187	2	1	1	135.693	105.948	131.984
324.422	105.336	2	1	1	142.252	105.948	131.984
323.896	104.486	2	1	1	136.676	105.948	131.984
323.366	103.638	2	1	1	140.217	105.948	131.984
322.834	102.791	2	1	1	139.809	105.948	131.984
322.302	101.944	2	1	1	149.291	105.948	131.984
321.770	101.098	2	1	1	155.129	105.948	131.984
321.238	100.251	2	1	1	151.457	105.948	131.984
320.706	99.404	2	1	1	146.968	105.948	131.984
320.174	98.557	2	1	1	142.144	105.948	131.984
319.642	97.711	2	1	1	148.254	105.948	131.984
319.110	96.864	2	1	1	153.534	105.948	131.984
318.578	96.017	2	1	1	149.749	105.948	131.984
318.046	95.170	2	1	1	150.560	105.948	131.984
317.440	94.375	2	1	1	156.007	105.948	131.984
316.613	93.813	2	1	1	162.811	105.948	131.984
315.785	93.252	2	1	1	165.622	105.948	131.984
314.958	92.690	2	1	1	175.830	105.948	131.984
314.130	92.129	2	1	1	186.473	105.948	131.984
313.303	91.567	2	1	1	174.238	105.948	131.984
312.475	91.006	2	1	1	170.988	105.948	131.984
311.648	90.444	2	1	1	167.503	105.948	131.984
310.820	89.883	2	1	1	155.746	105.948	131.984
309.993	89.321	2	1	1	160.856	105.948	131.984
309.165	88.760	2	1	1	154.546	105.948	131.984
308.338	88.198	2	1	1	154.787	105.948	131.984
307.510	87.637	2	1	1	145.506	105.948	131.984
306.653	87.123	2	1	1	150.014	105.948	131.984
305.771	86.652	2	1	1	142.713	105.948	131.984
304.888	86.181	2	1	1	139.490	105.948	131.984
304.006	85.709	2	1	1	140.980	105.948	131.984
303.124	85.238	2	1	1	156.883	105.948	131.984
302.242	84.767	2	1	1	149.495	105.948	131.984
301.360	84.296	2	1	1	147.700	105.948	131.984
300.478	83.825	2	1	1	152.105	105.948	131.984
299.596	83.354	2	1	1	156.667	105.948	131.984
298.714	82.883	2	1	1	156.389	105.948	131.984
297.832	82.412	2	1	1	160.919	105.948	131.984
296.950	81.941	2	1	1	153.559	105.948	131.984
296.068	81.470	2	1	1	150.703	105.948	131.984
295.171	81.026	2	1	1	153.951	105.948	131.984
294.252	80.632	2	1	1	159.788	105.948	131.984
293.333	80.238	2	1	1	159.730	105.948	131.984
292.414	79.844	2	1	1	165.842	105.948	131.984
291.495	79.450	2	1	1	162.119	105.948	131.984
290.576	79.056	2	1	1	161.891	105.948	131.984
289.657	78.662	2	1	1	161.863	105.948	131.984
288.737	78.268	2	1	1	161.993	105.948	131.984
287.818	77.875	2	1	1	160.381	105.948	131.984
286.899	77.481	2	1	1	162.738	105.948	131.984
285.990	77.064	2	1	1	174.105	105.948	131.984
285.124	76.563	2	1	1	162.896	105.948	131.984
284.259	76.062	2	1	1	165.948	105.948	131.984
283.394	75.561	2	1	1	160.832	105.948	131.984
282.528	75.060	2	1	1	162.758	105.948	131.984
281.663	74.559	2	1	1	153.122	105.948	131.984
280.797	74.058	2	1	1	155.264	105.948	131.984
279.932	73.557	2	1	1	164.210	105.948	131.984
278.949	73.371	2	1	1	163.611	105.948	131.984
277.960	73.226	2	1	1	179.712	105.948	131.984
276.971	73.081	2	1	1	184.742	105.948	131.984
275.981	72.936	2	1	1	203.218	105.948	131.984
274.992	72.791	2	1	1	206.575	105.948	131.984
274.002	72.647	2	1	1	190.629	105.948	131.984
273.013	72.502	2	1	1	180.875	105.948	131.984
272.078	72.147	2	1	1	157.069	105.948	131.984
271.144	71.790	2	1	1	153.934	105.948	131.984
270.210	71.433	2	1	1	141.828	105.948	131.984
269.275	71.076	2	1	1	143.442	105.948	131.984
268.341	70.719	2	1	1	155.076	105.948	131.984
267.407	70.362	2	1	1	150.269	105.948	131.984
266.468	70.019	2	1	1	146.465	105.948	131.984
265.528	69.677	2	1	1	146.594	105.948	131.984
264.588	69.335	2	1	1	141.883	105.948	131.984
263.649	68.993	2	1	1	150.210	105.948	131.984
262.709	68.652	2	1	1	137.999	105.948	131.984
261.769	68.310	2	1	1	147.050	105.948	131.984
260.829	67.968	2	1	1	149.747	105.948	131.984
259.876	67.667	2	1	1	143.574	105.948	131.984
258.876	67.667	2	1	1	145.837	105.948	131.984
257.876	67.667	2	1	1	147.532	105.948	131.984
256.876	67.667	2	1	1	152.789	105.948	131.984
255.876	67.667	2	1	1	146.922	105.948	131.984
254.876	67.667	2	1	1	150.440	105.948	131.984
253.876	67.667	2	1	1	155.883	105.948	131.984
252.876	67.667	2	1	1	162.831	105.948	131.984
251.876	67.667	2	1	1	154.802	105.948	131.984
250.876	67.667	2	1	1	159.321	105.948	131.984
249.876	67.667	2	1	1	165.071	105.948	131.984
248.876	67.667	2	1	1	163.498	105.948	131.984
247.876	67.667	2	1	1	173.617	105.948	131.984
246.884	67.536	2	1	1	165.647	105.948	131.984
245.924	67.256	2	1	1	162.904	105.948	131.984
244.964	66.976	2	1	1	163.630	105.948	131.984
244.004	66.696	2	1	1	158.998	105.948	131.984
243.044	66.416	2	1	1	174.490	105.948	131.984
242.084	66.136	2	1	1	174.534	105.948	131.984
241.124	65.856	2	1	1	180.237	105.948	131.984
240.164	65.576	2	1	1	177.081	105.948	131.984
239.199	65.316	2	1	1	165.304	105.948	131.984
238.206	65.192	2	1	1	160.885	105.948	131.984
237.214	65.068	2	1	1	151.087	105.948	131.984
236.222	64.944	2	1	1	160.069	105.948	131.984
235.229	64.820	2	1	1	166.091	105.948	131.984
234.237	64.696	2	1	1	166.897	105.948	131.984
233.245	64.572	2	1	1	163.152	105.948	131.984
232.253	64.448	2	1	1	147.465	105.948	131.984
231.260	64.324	2	1	1	158.778	105.948	131.984
230.268	64.200	2	1	1	159.255	105.948	131.984
229.269	64.167	2	1	1	156.270	105.948	131.984
228.269	64.167	2	1	1	157.554	105.948	131.984
227.269	64.167	2	1	1	160.013	105.948	131.984
226.269	64.167	2	1	1	154.776	105.948	131.984
225.269	64.167	2	1	1	154.411	105.948	131.984
224.269	64.167	2	1	1	154.243	105.948	131.984
223.269	64.167	2	1	1	147.384	105.948	131.984
222.269	64.167	2	1	1	150.954	105.948	131.984
221.269	64.167	2	1	1	145.604	105.948	131.984
220.269	64.167	2	1	1	151.147	105.948	131.984
219.269	64.167	2	1	1	152.620	105.948	131.984
218.269	64.167	2	1	1	151.221	105.948	131.984
217.269	64.167	2	1	1	146.519	105.948	131.984
216.269	64.167	2	1	1	148.736	105.948	131.984
215.269	64.167	2	1	1	149.210	105.948	131.984
214.269	64.167	2	1	1	149.494	105.948	131.984
213.273	64.070	2	1	1	146.177	105.948	131.984
212.302	63.832	2	1	1	145.283	105.948	131.984
211.331	63.594	2	1	1	151.413	105.948	131.984
210.360	63.356	2	1	1	165.301	105.948	131.984
209.388	63.117	2	1	1	164.471	105.948	131.984
208.417	62.879	2	1	1	167.534	105.948	131.984
207.446	62.641	2	1	1	167.838	105.948	131.984
206.475	62.403	2	1	1	161.295	105.948	131.984
205.504	62.164	2	1	1	148.282	105.948	131.984
204.509	62.064	2	1	1	145.342	105.948	131.984
203.527	62.256	2	1	1	140.795	105.948	131.984
202.546	62.448	2	1	1	137.454	105.948	131.984
201.565	62.640	2	1	1	138.754	105.948	131.984
200.583	62.832	2	1	1	134.428	105.948	131.984
199.602	63.024	2	1	1	132.219	105.948	131.984
198.620	63.216	2	1	1	129.448	105.948	131.984
197.639	63.408	2	1	1	129.603	105.948	131.984
196.668	63.648	2	1	1	144.026	105.948	131.984
195.710	63.934	2	1	1	143.233	105.948	131.984
194.752	64.219	2	1	1	148.208	105.948	131.984
193.793	64.505	2	1	1	141.528	105.948	131.984
192.835	64.790	2	1	1	135.953	105.948	131.984
191.877	65.076	2	1	1	127.594	105.948	131.984
190.918	65.361	2	1	1	131.715	105.948	131.984
189.960	65.647	2	1	1	140.954	105.948	131.984
188.987	65.877	2	1	1	140.729	105.948	131.984
187.994	66.001	2	1	1	139.507	105.948	131.984
187.002	66.125	2	1	1	129.795	105.948	131.984
186.010	66.249	2	1	1	129.026	105.948	131.984
185.017	66.373	2	1	1	130.112	105.948	131.984
184.025	66.497	2	1	1	135.922	105.948	131.984
183.033	66.621	2	1	1	138.046	105.948	131.984
182.041	66.745	2	1	1	134.487	105.948	131.984
181.048	66.869	2	1	1	137.538	105.948	131.984
180.056	66.993	2	1	1	137.869	105.948	131.984
179.064	67.117	2	1	1	135.891	105.948	131.984
178.071	67.241	2	1	1	142.501	105.948	131.984
177.079	67.365	2	1	1	141.638	105.948	131.984
176.087	67.489	2	1	1	153.263	105.948	131.984
175.148	67.833	2	1	1	154.757	105.948	131.984
174.216	68.196	2	1	1	162.931	105.948	131.984
173.285	68.560	2	1	1	164.316	105.948	131.984
172.353	68.923	2	1	1	178.180	105.948	131.984
171.421	69.287	2	1	1	189.832	105.948	131.984
170.490	69.650	2	1	1	193.482	105.948	131.984
169.558	70.014	2	1	1	184.850	105.948	131.984
168.627	70.377	2	1	1	170.198	105.948	131.984
167.695	70.741	2	1	1	154.877	105.948	131.984
166.764	71.104	2	1	1	145.877	105.948	131.984
165.832	71.468	2	1	1	135.131	105.948	131.984
164.997	72.018	2	1	1	132.851	105.948	131.984
164.173	72.584	2	1	1	134.164	105.948	131.984
163.349	73.151	2	1	1	135.379	105.948	131.984
162.525	73.717	2	1	1	135.066	105.948	131.984
161.701	74.284	2	1	1	133.339	105.948	131.984
160.877	74.851	2	1	1	137.872	105.948	131.984
160.052	75.417	2	1	1	139.445	105.948	131.984
159.228	75.984	2	1	1	132.964	105.948	131.984
158.404	76.550	2	1	1	132.406	105.948	131.984
157.558	77.082	2	1	1	140.754	105.948	131.984
156.639	77.476	2	1	1	139.448	105.948	131.984
155.720	77.870	2	1	1	140.378	105.948	131.984
154.800	78.264	2	1	1	137.150	105.948	131.984
153.881	78.658	2	1	1	137.691	105.948	131.984
152.962	79.052	2	1	1	132.979	105.948	131.984
152.043	79.446	2	1	1	134.648	105.948	131.984
151.124	79.840	2	1	1	133.069	105.948	131.984
150.181	80.174	2	1	1	130.705	105.948	131.984
149.225	80.467	2	1	1	131.438	105.948	131.984
148.269	80.761	2	1	1	132.996	105.948	131.984
147.313	81.054	2	1	1	131.238	105.948	131.984
146.357	81.347	2	1	1	130.547	105.948	131.984
145.401	81.640	2	1	1	133.787	105.948	131.984
144.445	81.933	2	1	1	134.955	105.948	131.984
143.489	82.226	2	1	1	133.674	105.948	131.984
142.533	82.519	2	1	1	134.311	105.948	131.984
141.577	82.812	2	1	1	136.559	105.948	131.984
140.621	83.105	2	1	1	145.159	105.948	131.984
139.665	83.398	2	1	1	150.433	105.948	131.984
138.672	83.519	2	1	1	156.159	105.948	131.984
137.672	83.549	2	1	1	155.459	105.948	131.984
136.673	83.578	2	1	1	152.561	105.948	131.984
135.673	83.608	2	1	1	145.956	105.948	131.984
134.674	83.637	2	1	1	147.686	105.948	131.984
133.674	83.666	2	1	1	146.077	105.948	131.984
132.980	84.386	2	1	1	144.320	105.948	131.984
132.289	85.110	2	1	1	146.934	105.948	131.984
131.599	85.833	2	1	1	143.070	105.948	131.984
130.908	86.556	2	1	1	144.427	105.948	131.984
130.218	87.280	2	1	1	136.558	105.948	131.984
129.559	88.032	2	1	1	133.632	105.948	131.984
128.903	88.787	2	1	1	132.797	105.948	131.984
128.247	89.541	2	1	1	132.619	105.948	131.984
127.591	90.296	2	1	1	136.646	105.948	131.984
126.934	91.050	2	1	1	126.280	105.948	131.984
126.075	91.561	2	1	1	133.310	105.948	131.984
125.187	92.022	2	1	1	131.965	105.948	131.984
124.300	92.483	2	1	1	126.962	105.948	131.984
123.412	92.944	2	1	1	124.014	105.948	131.984
122.525	93.405	2	1	1	129.777	105.948	131.984
121.637	93.866	2	1	1	129.331	105.948	131.984
120.750	94.327	2	1	1	128.185	105.948	131.984
119.863	94.788	2	1	1	129.495	105.948	131.984
118.975	95.249	2	1	1	128.778	105.948	131.984
118.088	95.710	2	1	1	126.039	105.948	131.984
117.200	96.171	2	1	1	125.845	105.948	131.984
116.313	96.632	2	1	1	127.983	105.948	131.984
115.426	97.093	2	1	1	126.508	105.948	131.984
114.538	97.554	2	1	1	124.890	105.948	131.984
113.660	98.031	2	1	1	124.219	105.948	131.984
112.795	98.533	2	1	1	119.691	105.948	131.984
111.930	99.035	2	1	1	124.759	105.948	131.984
111.065	99.537	2	1	1	130.830	105.948	131.984
110.200	100.040	2	1	1	131.018	105.948	131.984
109.336	100.542	2	1	1	132.404	105.948	131.984
108.471	101.044	2	1	1	130.200	105.948	131.984
107.606	101.546	2	1	1	137.716	105.948	131.984
106.741	102.048	2	1	1	138.691	105.948	131.984
105.876	102.550	2	1	1	130.575	105.948	131.984
105.012	103.052	2	1	1	137.187	105.948	131.984
104.147	103.555	2	1	1	137.331	105.948	131.984
103.367	104.180	2	1	1	134.553	105.948	131.984
102.713	104.937	2	1	1	130.111	105.948	131.984
102.058	105.693	2	1	1	131.486	105.948	131.984
101.404	106.449	2	1	1	132.221	105.948	131.984
100.750	107.206	2	1	1	134.375	105.948	131.984
100.096	107.962	2	1	1	132.098	105.948	131.984
99.442	108.718	2	1	1	128.676	105.948	131.984
98.788	109.475	2	1	1	124.665	105.948	131.984
98.109	110.209	2	1	1	128.174	105.948	131.984
97.376	110.889	2	1	1	135.500	105.948	131.984
96.643	111.570	2	1	1	134.813	105.948	131.984
95.910	112.250	2	1	1	127.577	105.948	131.984
95.177	112.931	2	1	1	121.206	105.948	131.984
94.445	113.611	2	1	1	130.060	105.948	131.984
93.712	114.291	2	1	1	135.303	105.948	131.984
92.979	114.972	2	1	1	136.026	105.948	131.984
92.246	115.652	2	1	1	131.177	105.948	131.984
91.513	116.333	2	1	1	126.910	105.948	131.984
90.800	117.033	2	1	1	129.376	105.948	131.984
90.093	117.741	2	1	1	128.879	105.948	131.984
89.517	118.558	2	1	1	122.595	105.948	131.984
88.962	119.390	2	1	1	128.282	105.948	131.984
88.407	120.222	2	1	1	130.126	105.948	131.984
87.853	121.054	2	1	1	134.899	105.948	131.984
87.298	121.886	2	1	1	147.806	105.948	131.984
86.743	122.718	2	1	1	147.174	105.948	131.984
